,p_vals_full,mean_eff_size,abs_eff_size,p_vals_sz_20,eff_size_sz_20,freq_repr_sz_20,p_vals_sz_25,eff_size_sz_25,freq_repr_sz_25,p_vals_sz_30,eff_size_sz_30,freq_repr_sz_30,p_vals_sz_40,eff_size_sz_40,freq_repr_sz_40,p_vals_sz_50,eff_size_sz_50,freq_repr_sz_50,p_vals_sz_70,eff_size_sz_70,freq_repr_sz_70,band
"('F3', 'Fz')",5.744588325574312e-27,-1.0890533708368315,1.0890533708368315,0.0485912262153385,-1.1923711065769336,0.724,0.01246064392935587,-1.1796572420184446,0.942,0.005140495369917649,-1.1466422348477265,0.988,0.0005991696814320657,-1.1034703433706288,1.0,2.2145756300059555e-05,-1.096863099896997,1.0,2.6543828802234596e-08,-1.0938382655194556,1.0,alpha2
"('Fz', 'F4')",6.909634448656091e-27,-1.0200028587848697,1.0200028587848697,0.0408057322512897,-1.2143857236080093,0.752,0.011048274285175094,-1.162084373414631,0.954,0.0035055719633834176,-1.1317857534946423,0.992,0.00029350541837823023,-1.1077976784414987,1.0,8.455340315577528e-06,-1.1021710549603767,1.0,1.7387982256215007e-08,-1.0702664849691863,1.0,alpha2
"('F7', 'Fz')",6.267413890845437e-25,-1.0092263359070706,1.0092263359070706,0.05218458803101326,-1.1508125103248539,0.686,0.018641028547419235,-1.1111631536820608,0.896,0.00794475342190901,-1.0856304320067125,0.972,0.001302186636907304,-1.0494085526859398,0.998,4.120665639661107e-05,-1.0545723431271756,1.0,2.5558434104048234e-07,-1.026044292773282,1.0,alpha2
"('Fp1', 'F3')",1.118196026537544e-24,-1.0040008659001276,1.0040008659001276,0.04319671029116867,-1.1580347163121303,0.742,0.014855433361030885,-1.1239994468796266,0.926,0.004654838207510709,-1.0868651126021671,0.988,0.00042155966040465496,-1.047918430453937,1.0,2.8665219063407616e-05,-1.0324908553047285,1.0,5.2123773139172186e-08,-1.0121417290285954,1.0,alpha2
"('Fp1', 'Fz')",8.089848486025752e-25,-0.980808597331527,0.980808597331527,0.045693463494247,-1.1237450274843748,0.716,0.015324835110267228,-1.087320154863099,0.928,0.0054207691610663414,-1.0677670907323713,0.986,0.0004168130633950586,-1.0389569269731822,1.0,2.6547091535093248e-05,-1.0213263758072328,1.0,7.957009350329938e-08,-1.0151069129114354,1.0,alpha2
"('Fp2', 'Fz')",3.365851604648137e-21,-0.9149131503948459,0.9149131503948459,0.07297296662962192,-1.0465281833047437,0.568,0.02619112494901603,-1.0246046386377756,0.864,0.012562815896689086,-0.9805371104882966,0.946,0.0014012630082817987,-0.956535328003329,1.0,0.0001851323597605018,-0.9287230612859453,1.0,1.1199086894623277e-06,-0.9253524957807097,1.0,alpha2
"('F3', 'F4')",1.9767254598912499e-22,-0.9077773025756237,0.9077773025756237,0.06885836701284717,-1.0618718213045668,0.62,0.021833689213502996,-1.022057887036593,0.86,0.010319650083326557,-0.9940975900478667,0.952,0.0022053118140051655,-0.9586651199446757,0.996,0.00011215408651888727,-0.9528874613940129,1.0,5.441751146170474e-07,-0.9439583890622198,1.0,alpha2
"('Fp2', 'F4')",5.8329579282732544e-21,-0.9005960022590633,0.9005960022590633,0.07903139583989008,-1.049863574810975,0.57,0.030340042446978927,-1.0104043837566485,0.828,0.01610858579386449,-0.976620962995103,0.926,0.002088487888140699,-0.9356991470720372,0.996,0.00023589165683959962,-0.9238367762380201,1.0,1.4315127013431794e-06,-0.914002307530464,1.0,alpha2
"('F7', 'F3')",2.9770814019456482e-21,-0.8693634020301311,0.8693634020301311,0.05710525240383677,-1.1062624032776982,0.606,0.018024095416360422,-1.0735212740626332,0.908,0.007904741941873603,-1.0266551628360954,0.974,0.0009563153019501448,-0.9895779769517671,1.0,6.75695073854808e-05,-0.9779179648913632,1.0,7.329333396411671e-07,-0.9399207853827453,1.0,alpha2
"('Fp1', 'F4')",5.8329579282732544e-21,-0.8674221341417564,0.8674221341417564,0.07333867174462724,-1.0430462388401558,0.576,0.03264430344297248,-0.9780532793133232,0.814,0.015762669031660265,-0.941503269206265,0.908,0.002711623229994359,-0.921940236137266,0.992,0.00032083934358095455,-0.9178833927084378,0.998,3.4375387294370443e-06,-0.9051654627534211,1.0,alpha2
"('Fp1', 'F7')",2.3873903397052057e-21,-0.8595937155184817,0.8595937155184817,0.06679833066522596,-1.0296796500252294,0.584,0.02509018785088007,-0.9963576778091098,0.866,0.011226389288868214,-0.9735777074111913,0.962,0.0012571068799587621,-0.9417711543527847,1.0,9.560195627821006e-05,-0.9372498468805067,1.0,9.127901380893874e-07,-0.9159058852055036,1.0,alpha2
"('Fp1', 'F3')",1.897881108646949e-18,-0.8167823074542445,0.8167823074542445,0.08165283218507642,-0.8897236727627476,0.4,0.03199089994840057,-0.8770387506460565,0.804,0.013985790402107973,-0.8502595850221969,0.938,0.001729617340742799,-0.8347523093575261,1.0,0.00023135777466400182,-0.8243186840719037,1.0,1.7946080738533094e-06,-0.823167020540836,1.0,beta1
"('F7', 'F4')",1.7796699411510262e-19,-0.8068068955398348,0.8068068955398348,0.08954031977444978,-0.9573743958897277,0.512,0.044156190212849625,-0.9080527161137364,0.764,0.023985777354864613,-0.8928768430244085,0.884,0.006208383903104028,-0.8648363627162123,0.988,0.0005439913948732102,-0.8734648476807821,1.0,8.385745880453965e-06,-0.8589260028949787,1.0,alpha2
"('C3', 'Cz')",1.2907649008276007e-17,-0.7939640236566253,0.7939640236566253,0.11420615746134738,-0.8477378067017438,0.37,0.04575960253841403,-0.868466015231506,0.698,0.02382563293149327,-0.837626568051053,0.862,0.00514975898333407,-0.8199854605798045,0.982,0.000660259667427125,-0.8063051718192612,1.0,1.0538360892936257e-05,-0.8028882806357897,1.0,alpha2
"('Fp2', 'F3')",4.673330621490953e-18,-0.7939552351017957,0.7939552351017957,0.09171638984887316,-0.9328319640278369,0.456,0.03831738689896588,-0.918396952571614,0.758,0.019106247111225716,-0.883123246764883,0.886,0.0031898329497341738,-0.8542133644749408,0.996,0.0005132853855105888,-0.8296870734280772,1.0,9.348204378515154e-06,-0.8292637517652497,1.0,alpha2
"('F7', 'O2')",1.1069278966283306e-17,-0.7904816282299216,0.7904816282299216,0.11439477205959747,-0.8718370529580176,0.394,0.05107535819009376,-0.8484912690338087,0.684,0.028369369573806914,-0.8324942043186282,0.844,0.006074607944338667,-0.7950045326579922,0.98,0.0007721052629763458,-0.796240607553348,1.0,1.6616701386141113e-05,-0.7916467123376375,1.0,alpha2
"('Fp2', 'F4')",7.05717032487268e-17,-0.7846485990240082,0.7846485990240082,0.11750130665013224,-0.8240995901760357,0.36,0.05364185547701131,-0.8238948994833366,0.698,0.03167521963181258,-0.7980287764886527,0.822,0.005706534185066021,-0.7969294526445992,0.988,0.0008952260778113087,-0.7697596616135216,0.998,1.6214741894434935e-05,-0.7769698065786386,1.0,beta1
"('F4', 'F8')",2.252333852490179e-16,-0.7839712457306779,0.7839712457306779,0.139636016281914,-0.9298532179172394,0.47,0.0689826042780252,-0.9022108527043474,0.628,0.04597570413915721,-0.8469509760250585,0.742,0.010126117841561083,-0.8324810173573671,0.952,0.0028243151911661706,-0.8091481285017946,0.986,6.851735060487698e-05,-0.7871209926773984,1.0,alpha2
"('T6', 'O2')",4.955445469338911e-16,-0.7568273450448016,0.7568273450448016,0.12284046909773186,-0.8583673172542896,0.39,0.06018871029596873,-0.8272898243054735,0.646,0.03305194894913946,-0.7939731378158813,0.79,0.0070025558342663215,-0.7819227731377767,0.966,0.0016043360614295553,-0.7633526307012225,0.996,5.447259637254983e-05,-0.748053434720533,1.0,alpha2
"('Fp1', 'Fz')",2.888668622981116e-16,-0.7510387036424158,0.7510387036424158,0.11373711575837639,-0.8225820849413699,0.354,0.051524156084020896,-0.8071459960113316,0.69,0.027532214611879692,-0.7751537574746388,0.842,0.004483615452611222,-0.7738518844563433,0.994,0.0007461968035157438,-0.7622477609000765,1.0,1.5579211181348214e-05,-0.763393980431521,1.0,beta1
"('F7', 'T6')",1.4203990723841373e-17,-0.7497190218090388,0.7497190218090388,0.11141234010265123,-0.8758537068679674,0.398,0.04857623787715905,-0.8826883816326655,0.708,0.027117023849475032,-0.835731334032053,0.85,0.005879148846458488,-0.8065421727027214,0.978,0.0008909351593151295,-0.8023895875270535,1.0,1.7509336406088215e-05,-0.7978134773188187,1.0,alpha2
"('Fz', 'F8')",4.1712743912167138e-16,-0.7384040457532092,0.7384040457532092,0.12218071097598276,-0.8834161667770819,0.422,0.06611145906765545,-0.8431772008221294,0.624,0.04260948692777255,-0.8111320840014858,0.786,0.009516018834465434,-0.7844327610380307,0.97,0.0020975190032428365,-0.7715812185279386,0.998,6.58504192033378e-05,-0.7632247986381829,1.0,alpha2
"('F3', 'F8')",3.974687325703355e-16,-0.7351025865073967,0.7351025865073967,0.12589336033930534,-0.8272916165348303,0.394,0.06304393354399349,-0.7976878125222335,0.636,0.03918824837184306,-0.7755232527818983,0.8,0.009382066653347688,-0.757544764980251,0.964,0.0015893211669645803,-0.7550099744826043,0.998,5.072872964252594e-05,-0.7516001625251162,1.0,alpha2
"('T3', 'Cz')",1.0901190277612426e-15,-0.7348697569074596,0.7348697569074596,0.12966838830416436,-0.7888027484910547,0.326,0.05792345140859585,-0.7723138117824047,0.61,0.032793567379659265,-0.7514774861141889,0.83,0.007304065783348775,-0.7493643524324499,0.984,0.0010352443182989391,-0.743196985029183,1.0,3.1734167342921365e-05,-0.7304177663112321,1.0,alpha2
"('Fp1', 'O2')",2.88898218155587e-16,-0.7235561902973503,0.7235561902973503,0.12439904277215091,-0.8555526032832833,0.37,0.06623322133305166,-0.8242722470883787,0.622,0.031020581772368237,-0.8097960505018832,0.812,0.008754693352888875,-0.7799681838789233,0.958,0.001293788436379754,-0.7713149262421319,1.0,5.4563917912718876e-05,-0.7584974295259556,1.0,alpha2
"('Fp2', 'F4')",3.194738480569757e-15,-0.7222896384331405,0.7222896384331405,0.14255928195550277,-0.7931765636462265,0.334,0.07112488883102068,-0.7639519885508552,0.57,0.04132592014026167,-0.750217080689767,0.75,0.01018309081297088,-0.733756957752523,0.944,0.002101150464446591,-0.7311800588839973,0.996,9.320654004086708e-05,-0.7238337678656449,1.0,beta2
"('F7', 'Cz')",1.08682237271944e-15,-0.7183009984537375,0.7183009984537375,0.1377525609559807,-0.8616970620368728,0.392,0.06465899647098566,-0.8213945964164079,0.634,0.04821985473791453,-0.7933022873216817,0.73,0.014634089520653237,-0.7773877836476182,0.928,0.0024874508210718034,-0.7720528170930391,0.992,0.00014287917910863976,-0.7491949706918021,1.0,alpha2
"('Fp2', 'F7')",5.251521008334362e-16,-0.7076979168256182,0.7076979168256182,0.12817149177903722,-0.8317376220337134,0.384,0.07008104022267408,-0.7931277334855183,0.612,0.04393515074071218,-0.7691972683698645,0.764,0.011599658670696508,-0.7665265454757133,0.948,0.0021325468890250714,-0.7584422451403754,0.996,6.380119821875451e-05,-0.7545213539181355,1.0,alpha2
"('Fp1', 'F3')",1.1957587411818672e-14,-0.693195548407396,0.693195548407396,0.1135981283400856,-0.8106070965387043,0.29,0.05997575802944558,-0.7698639067268531,0.578,0.027998244555923466,-0.768894069059698,0.846,0.005736642114055939,-0.7377927002553811,0.99,0.0010162953804219587,-0.7291067667521287,1.0,2.6065723241941944e-05,-0.7157770797218054,1.0,alpha1
"('Fz', 'F4')",7.433369466860318e-14,-0.6848086686879095,0.6848086686879095,0.15948140027204133,-0.7543916020067798,0.272,0.08361021646970725,-0.755171679738226,0.526,0.05334893496447235,-0.701732209397678,0.68,0.013576539943813748,-0.7143368158313885,0.952,0.0026004298879098832,-0.6964456361795208,0.994,0.00015859060421682223,-0.6869272484909025,1.0,beta1
"('F3', 'Cz')",1.8380444520730228e-13,-0.6802546600000005,0.6802546600000005,0.17087218715732339,-0.7927741747452981,0.354,0.09423722653127982,-0.763953256532217,0.574,0.06806508074412243,-0.7321181145701664,0.704,0.024817615354131167,-0.7165696002646663,0.866,0.007375689378514737,-0.7154732734446724,0.962,0.00044731345524773493,-0.6854375724089238,1.0,alpha2
"('Fp2', 'Fz')",5.002276272460086e-15,-0.6708731899728959,0.6708731899728959,0.14441500908107782,-0.7604676066176997,0.266,0.06964903904061266,-0.7631214968116065,0.578,0.04370570493332768,-0.726367219742271,0.748,0.008904885075768679,-0.7334170649779939,0.972,0.0018724543526062835,-0.7100328145074064,0.998,5.994042999367138e-05,-0.720994614516491,1.0,beta1
"('F4', 'Cz')",3.344594458999104e-14,-0.6684598283398137,0.6684598283398137,0.16765492919829014,-0.7597884792136408,0.3,0.09168314899822351,-0.744774817508019,0.522,0.05570885486721011,-0.718083412769149,0.66,0.015751018769718426,-0.7014040199840453,0.914,0.004109261327115579,-0.7050231344127444,0.984,0.00027328109764874277,-0.6929051417868023,1.0,alpha2
"('T3', 'C3')",1.8380444520730228e-13,-0.6642587164132717,0.6642587164132717,0.16627615343736493,-0.7152140024195554,0.252,0.09123769427433329,-0.6987611945257917,0.466,0.04857474196393837,-0.693338628328555,0.71,0.013707849472297485,-0.677990780504297,0.94,0.003041902132454434,-0.6738847912334056,0.998,0.00013774183954805896,-0.6605081858320365,1.0,alpha2
"('Fp1', 'F7')",6.616035555560505e-13,-0.6583239593346499,0.6583239593346499,0.18266000865958879,-0.7042214200654561,0.184,0.10816270552584914,-0.687943099751993,0.474,0.06258302770195555,-0.6792249121797814,0.642,0.020599304625381922,-0.6573160788744833,0.904,0.0043496075996406055,-0.6591511364239135,0.988,0.0003120119276439305,-0.6506531535974353,1.0,beta2
"('F8', 'O1')",6.166263428373753e-13,-0.6570931888304736,0.6570931888304736,0.18952661913550314,-0.715936775564839,0.27,0.10179479670695508,-0.690632222268965,0.48,0.07157122440927555,-0.6636460403250848,0.622,0.023198691061599105,-0.6487013293174565,0.878,0.006499184197309228,-0.6519528698970334,0.972,0.0005145556583911908,-0.650571483330717,0.998,alpha2
"('Fp1', 'T6')",2.7706206815822916e-14,-0.6552446075978045,0.6552446075978045,0.154440125836018,-0.7467119905481087,0.284,0.08689679623896322,-0.7309929906460261,0.524,0.045828088650434834,-0.7328160509628556,0.72,0.016012029658321988,-0.6953684907441774,0.91,0.002858268378477192,-0.6959958497145323,0.998,0.0001716700144722773,-0.6915977797544377,1.0,alpha2
"('F3', 'Fz')",1.8151374983368171e-12,-0.6505159195726496,0.6505159195726496,0.19092028122699417,-0.6905467180162698,0.192,0.10283556528113086,-0.6872566072101406,0.44,0.06353049001987991,-0.6634962615511504,0.638,0.020505126959561158,-0.651263641162391,0.878,0.004837539699579215,-0.6453600892804413,0.99,0.00022553057795969344,-0.6463335904558043,1.0,beta1
"('F4', 'F8')",9.335163411604986e-14,-0.6499609532002892,0.6499609532002892,0.1630194905574746,-0.7174600927073129,0.222,0.08383116283775806,-0.7143695645463468,0.488,0.05072907674273903,-0.6918664647248604,0.7,0.011267722351256143,-0.6924841495257253,0.95,0.0023968008729649414,-0.6787839216508316,0.996,0.00013235439915075298,-0.6715868253362147,1.0,beta2
"('Fp1', 'F3')",1.003728105312855e-12,-0.6392755735726345,0.6392755735726345,0.17447932538860694,-0.7180967250424722,0.246,0.09895277661508199,-0.6980949694831708,0.482,0.06517522452860287,-0.6759192689810631,0.624,0.019880120880630976,-0.6548921652080285,0.886,0.005390747759826722,-0.6459993524575072,0.982,0.0003823004774661383,-0.6401664549985436,1.0,beta2
"('F8', 'T5')",6.232326996734469e-12,-0.6307990436401879,0.6307990436401879,0.2032369545085364,-0.6575405609628313,0.172,0.10787828197782309,-0.6687196435957623,0.428,0.07184929077377387,-0.6449242977915604,0.622,0.024440778792812947,-0.625218942946846,0.862,0.006593591512011087,-0.6156853835264872,0.982,0.0006653870358157318,-0.6150075876304542,1.0,alpha2
"('Fp1', 'F7')",2.525913498855683e-12,-0.6281909154523856,0.6281909154523856,0.19360927518596013,-0.6836026834418416,0.17,0.11994172731731265,-0.6795326564042733,0.426,0.07724296337446551,-0.652976409455121,0.586,0.024581872068510226,-0.643818001754647,0.848,0.00575580810941301,-0.6513811861040932,0.99,0.0005383596338740341,-0.6401025499369755,1.0,beta1
"('F3', 'Cz')",2.1328323004420395e-11,-0.624854231964237,0.624854231964237,0.1946710099231661,-0.683112616757852,0.202,0.10954911275160764,-0.6699157102382768,0.428,0.0819238107453038,-0.6384692149616745,0.574,0.026316000160599533,-0.6251837663048059,0.84,0.007812392586546902,-0.6192689972591428,0.974,0.0007000480827943698,-0.614278145914874,1.0,beta1
"('Fp1', 'Fz')",1.7825603094557734e-12,-0.6245497307123877,0.6245497307123877,0.18604595046734154,-0.678020162106,0.214,0.10109537572345159,-0.6705291274557627,0.418,0.06971111835326667,-0.6500537428819757,0.6,0.017686777997375523,-0.6524229056407644,0.924,0.004793724882001339,-0.6370652616116691,0.988,0.00036961726101872436,-0.6378075199443495,1.0,beta2
"('Fp2', 'Cz')",1.2074260436779863e-11,-0.6233308321110874,0.6233308321110874,0.20762905877249663,-0.6726906696712933,0.218,0.1253253877532707,-0.6642470978967662,0.394,0.08954123707940928,-0.6282623653034664,0.56,0.027670129269201673,-0.6384175561254329,0.844,0.010209354456691569,-0.6034947639856777,0.954,0.0010303049024183468,-0.6183896989021047,0.996,beta1
"('Cz', 'C4')",9.454587324939197e-12,-0.6210420921121504,0.6210420921121504,0.20916965334004758,-0.7192653589610177,0.278,0.137815726657699,-0.7033096506418881,0.482,0.08067436645330986,-0.6992489774693426,0.664,0.03946828597698315,-0.6699818006522635,0.796,0.01573606657673212,-0.644736344117994,0.89,0.001758106148569695,-0.6399842763367286,0.998,alpha2
"('F7', 'F3')",8.778169852310223e-12,-0.6162298770090662,0.6162298770090662,0.19241660500539864,-0.6832867061812644,0.174,0.10653658419181142,-0.6803452133856016,0.456,0.07358354643023333,-0.6603995450987346,0.63,0.024410846133888046,-0.644349646554947,0.866,0.007265300179473158,-0.6475878622485269,0.964,0.0005625671018519324,-0.6301609966911257,1.0,alpha1
"('F7', 'Pz')",4.780952853441199e-10,-0.6149927800044176,0.6149927800044176,0.24950476294893068,-0.6276471761458206,0.174,0.16865475937212523,-0.5936900778525794,0.302,0.12639478561833425,-0.5747061137954577,0.446,0.05743302616785957,-0.5648294020619032,0.706,0.019740187609643977,-0.5693772580574076,0.886,0.0032180217794554058,-0.5533489727022012,0.99,alpha2
"('F3', 'T6')",2.525913498855683e-12,-0.6147661602433077,0.6147661602433077,0.19525396721159347,-0.681831139925048,0.206,0.10920442632758957,-0.6748366264408171,0.434,0.06887619041231664,-0.6558927192023242,0.61,0.02683858346379731,-0.6335022119053481,0.85,0.007920955546392761,-0.6337130602051777,0.966,0.0005031280618126512,-0.6357122608332411,1.0,alpha2
"('T5', 'O1')",8.501789755480021e-11,-0.613407530229078,0.613407530229078,0.22068245636201878,-0.6870572517138984,0.204,0.141937592657978,-0.6664141095182161,0.396,0.09903277616241862,-0.6412093354519324,0.568,0.03569084386057568,-0.6360927651459859,0.784,0.01497295201204547,-0.6152297986729011,0.91,0.0020065158378558758,-0.590031692253093,0.998,alpha2
"('Fp1', 'F4')",1.2280780253962138e-11,-0.6101202746324009,0.6101202746324009,0.1946199419127929,-0.6750152912068754,0.192,0.12520855176529858,-0.6423649509881184,0.368,0.0787811956701754,-0.6392110351174071,0.59,0.024684287405482012,-0.6212233061585558,0.854,0.0067750879086759235,-0.6127257923133724,0.978,0.0005372726391290488,-0.6103894465459556,1.0,alpha1
"('C3', 'C4')",1.508015742990607e-11,-0.6053728080662777,0.6053728080662777,0.23052438193873728,-0.6535545391086194,0.19,0.1317471504400306,-0.6553397956239979,0.398,0.0799067622849721,-0.6533498316822074,0.582,0.031945137605924406,-0.6268358724318397,0.83,0.01011994067573399,-0.6148329542640114,0.958,0.0011809211510106297,-0.606295530506975,0.998,alpha2
"('F7', 'F3')",4.164760769774518e-12,-0.6030004739887934,0.6030004739887934,0.1663320591948538,-0.6825596551903321,0.158,0.09087846816748031,-0.6790489166605826,0.418,0.051247525300649924,-0.665744031415969,0.654,0.014000950910394905,-0.647593016832971,0.948,0.003639210339286893,-0.6412196669093816,0.996,0.00019856094022346093,-0.6326217193747063,1.0,beta1
"('Fp1', 'Cz')",5.021858956935974e-12,-0.6015050072356856,0.6015050072356856,0.1882376124353654,-0.6796201328707945,0.2,0.11058032726002415,-0.6601554196233085,0.4,0.07411356192610262,-0.6254224359064167,0.584,0.018626019667061178,-0.6341204414667684,0.906,0.006427773059324304,-0.6196037518224485,0.978,0.00037506483546085283,-0.6236404235347732,1.0,beta1
"('Fp2', 'F4')",7.073164603615993e-11,-0.5991751634769955,0.5991751634769955,0.20469122289948463,-0.6833149557600711,0.208,0.1339464794568534,-0.6506962697997613,0.364,0.08236514274245738,-0.6429387210233761,0.584,0.030368473778887725,-0.6072164560717711,0.816,0.011178549477304718,-0.5949912418302423,0.962,0.0009758110958251888,-0.5965411285125739,1.0,alpha1
"('Fp1', 'Fp2')",3.1121273435865e-12,-0.5990979352321413,0.5990979352321413,0.18907732706284838,-0.7460918666096655,0.268,0.1141839523482732,-0.7148387220347704,0.452,0.09442490115601915,-0.675614659286165,0.568,0.030962013517615756,-0.6678925268610995,0.834,0.009897865856426175,-0.6514176755692732,0.95,0.0008769594083971183,-0.65217603346354,0.998,alpha2
"('Fp2', 'T6')",6.622405161713795e-11,-0.598024398052745,0.598024398052745,0.22331528733796066,-0.6517100253935812,0.196,0.15399816928855972,-0.6157724686252485,0.344,0.09286892775115412,-0.6225467023728164,0.536,0.04544675210514959,-0.5826854993122861,0.768,0.012460307028771135,-0.5966827633953548,0.93,0.0014732665716891608,-0.5927657930617017,0.996,alpha2
"('F4', 'F8')",3.688541171515525e-12,-0.5948537235069294,0.5948537235069294,0.20565459426376903,-0.6972272548139833,0.24,0.11455708464110259,-0.7059090074112361,0.468,0.08841648957155204,-0.6638784715394163,0.6,0.026436113967246093,-0.6670050745461108,0.832,0.008194402566272319,-0.6476129438561496,0.968,0.000789777886707929,-0.6302493890878347,1.0,beta1
"('Fp2', 'O2')",2.844780471261571e-13,-0.5898389034557259,0.5898389034557259,0.16532505678711779,-0.7592568988509893,0.26,0.10809241626460026,-0.7179385212826115,0.486,0.0585660520917268,-0.7146412519704329,0.678,0.021362015195986704,-0.6755415094926807,0.886,0.0045177426796637,-0.6780666858256549,0.99,0.0003558284707625257,-0.6666125174327522,1.0,alpha2
"('Fp2', 'F8')",1.3448220246415883e-11,-0.5885127023627164,0.5885127023627164,0.19189341523580955,-0.7697243159983858,0.326,0.12812801528705633,-0.7342243494979357,0.506,0.1009792379148409,-0.6971179704382477,0.598,0.03638359567960177,-0.6807972851390215,0.798,0.013223879198016793,-0.65506937056417,0.932,0.0014480479919081008,-0.6345182230703414,0.998,alpha2
"('Fz', 'T3')",3.26240516321477e-12,-0.585622376748846,0.585622376748846,0.2146175820196549,-0.6769869689509914,0.232,0.12210046932454105,-0.6575875463949388,0.432,0.080873540083475,-0.6458418868180479,0.6,0.030285339575790694,-0.6376090198761302,0.828,0.008899794116760553,-0.6225001701244387,0.958,0.0006808346947144027,-0.6192632423505051,1.0,alpha2
"('T3', 'Pz')",5.462058531315149e-11,-0.5852638970986651,0.5852638970986651,0.21967288787654596,-0.6471396330535416,0.176,0.15085127915240318,-0.6156971159778237,0.32,0.09808412327164734,-0.5907785192551528,0.5,0.03531322099405048,-0.5934690149479942,0.81,0.00929297615077329,-0.60106446093263,0.97,0.0011473728873095269,-0.5813517555783078,1.0,alpha2
"('F3', 'T3')",2.8336249282927737e-10,-0.5838032469215702,0.5838032469215702,0.25182268196779817,-0.6243316485806149,0.166,0.16367449244358925,-0.6050656186177139,0.314,0.10398247185910434,-0.5987235914441472,0.488,0.04541262643328374,-0.5801230715552304,0.748,0.014813222503608498,-0.572055248626372,0.93,0.0018716654635486003,-0.5631971509097647,1.0,alpha2
"('Fp1', 'Fz')",2.971945318807322e-12,-0.5836668165651255,0.5836668165651255,0.18656262277290217,-0.703122625454411,0.212,0.11446567089313207,-0.6701560221256251,0.42,0.06550037420467306,-0.6527189272886289,0.628,0.01938451245117647,-0.6471297042631322,0.906,0.00556581407218775,-0.6380879855526713,0.982,0.00031730704989656633,-0.6401193165162585,1.0,alpha1
"('Fp1', 'C3')",6.895697093409817e-12,-0.5807590329007261,0.5807590329007261,0.20052587380462844,-0.6529226497461524,0.16,0.11391577646712703,-0.6552124561735996,0.392,0.07093000383869097,-0.6244889206398309,0.59,0.02031848041045808,-0.6225653274578031,0.876,0.005996269774872427,-0.6238732448026647,0.984,0.00052968149745374,-0.6182195247493838,1.0,beta1
"('Fp2', 'F4')",1.0606196992609716e-11,-0.5768552917756902,0.5768552917756902,0.21425588105807258,-0.6528583336152952,0.192,0.12258984588759268,-0.6324951789977946,0.364,0.08213870547056651,-0.619106545786567,0.582,0.028880128746476514,-0.6170457207727776,0.84,0.009112518440925423,-0.6165673213567128,0.966,0.0007248634853516742,-0.6106090124740231,1.0,gamma
"('Fp1', 'F7')",1.4321330183303643e-10,-0.5766283224029836,0.5766283224029836,0.22240613998258127,-0.6302627020006336,0.116,0.14888859812838726,-0.5987111135141564,0.296,0.09347355742871227,-0.6012094505174813,0.514,0.038197115050318864,-0.5825548787776709,0.784,0.012003492437215057,-0.5957971632349196,0.942,0.0011518892561391578,-0.5809669935878776,1.0,alpha1
"('Fp2', 'F3')",3.690183715085438e-11,-0.5693299690574312,0.5693299690574312,0.20508732071511754,-0.6777812395413766,0.168,0.1290269160144941,-0.648401107756561,0.372,0.08638745396151387,-0.6300196646242087,0.562,0.03026358534488471,-0.6117921374465243,0.816,0.011018557740843817,-0.6050717849574142,0.942,0.0008608918998472623,-0.6075461535646788,1.0,alpha1
"('F7', 'Fz')",1.1095001305855559e-10,-0.5678347469859071,0.5678347469859071,0.2336083915427886,-0.6358984475130111,0.15,0.14837284060059094,-0.616405175638925,0.332,0.10719523947800297,-0.5971045794305448,0.496,0.04051927712354822,-0.5828062271994284,0.776,0.012800293932616745,-0.5915472120333195,0.938,0.0017310408104646226,-0.58840897252721,0.996,alpha1
"('O1', 'O2')",2.008534502573621e-10,0.5634051191434378,0.5634051191434378,0.23253640614365714,0.7052365378452855,0.236,0.1658081752004401,0.6698344939292185,0.394,0.11957593067361649,0.6548630444771699,0.552,0.049616535678245824,0.6257320259244016,0.768,0.019927185296650187,0.6290463458806238,0.88,0.0034563716007614,0.5937860051205033,0.994,alpha1
"('F7', 'F8')",2.489384307732889e-10,-0.5624596280228876,0.5624596280228876,0.25382206946466745,-0.6187540498526487,0.198,0.16445998895797329,-0.5962266700409097,0.304,0.12152805030911909,-0.5803627297402508,0.462,0.04828105774715368,-0.5669938343742051,0.712,0.01760275472230407,-0.5664246014117955,0.904,0.002651238537558217,-0.5645619660107363,0.992,alpha2
"('F7', 'F3')",6.641230911801202e-11,-0.561243536329732,0.561243536329732,0.21510995822285145,-0.6275768235563433,0.122,0.12969100703715644,-0.6193167834180221,0.334,0.08857998300736578,-0.599067509475648,0.508,0.032146307407548855,-0.5917672437199183,0.806,0.009830148836671437,-0.5862119096791267,0.956,0.0010895595145970923,-0.5777266547397457,1.0,beta2
"('F3', 'Fz')",4.1204032759067e-11,-0.5583225723272711,0.5583225723272711,0.2251325263981615,-0.7161677366203788,0.248,0.1551850072695515,-0.6685649676797899,0.416,0.10443730092296863,-0.6629274626269455,0.582,0.045979684036364946,-0.6407237360482652,0.768,0.01719918065599181,-0.6459137003241713,0.88,0.002656033742619457,-0.6259651906069847,0.988,alpha1
"('T4', 'C4')",7.25753840427178e-09,-0.5583175430239484,0.5583175430239484,0.25811773439567853,-0.5790395544055574,0.1,0.1810633403059219,-0.5582276819332395,0.236,0.12019577477992997,-0.5450567822489445,0.38,0.05503729012261933,-0.5224532887975453,0.65,0.024195036348745126,-0.5202405416922644,0.882,0.003319974490177739,-0.5187152119809403,0.994,alpha2
"('Fp2', 'Fz')",6.641230911801202e-11,-0.5519503866126582,0.5519503866126582,0.23334817672894664,-0.6288859508221899,0.182,0.13587934750028804,-0.6256046170638863,0.34,0.11202820142314765,-0.5918003759344258,0.498,0.037489090649988385,-0.595231661209916,0.776,0.011991790418137279,-0.5811735170847954,0.944,0.0013931788293962352,-0.5880149293784532,0.996,beta2
"('Fp1', 'F3')",7.272097848133338e-10,-0.5514269498625252,0.5514269498625252,0.2050829375900931,-0.6311620802857236,0.062,0.1406420411740586,-0.5953245488333331,0.244,0.08589439333947835,-0.5894208273080418,0.486,0.03100247742798589,-0.5660574866537862,0.804,0.010789062692828867,-0.5582429088396514,0.97,0.0009496100498560758,-0.55521932503375,1.0,theta
"('O2', 'Pz')",4.20828585155928e-10,0.549077790012185,0.549077790012185,0.260761177781171,0.5849090105588594,0.122,0.1671256218414205,0.5813348242032084,0.296,0.10251624636583011,0.5901100148405003,0.472,0.04756505642770126,0.5556098129593113,0.738,0.01357400928408589,0.5638229026616162,0.92,0.0019124230686502896,0.5468698502524452,1.0,alpha1
"('F4', 'C3')",4.860937668626819e-11,-0.5472398111291067,0.5472398111291067,0.2336043123109832,-0.6323373334159795,0.194,0.1394449082284441,-0.633941815968344,0.348,0.09386768513969289,-0.613200988117049,0.53,0.03923546803424635,-0.5884800177965006,0.812,0.012399500649868438,-0.5985130265660812,0.936,0.001350578791189284,-0.5777429046135772,0.998,alpha2
"('Fp2', 'C4')",5.843209908864102e-10,-0.5471027075901116,0.5471027075901116,0.24040064076323386,-0.6049072209156572,0.144,0.16528073456080855,-0.5792236018676874,0.294,0.12103635323167905,-0.5545013369272307,0.432,0.04681708013125009,-0.5616949177585978,0.73,0.019087878279777013,-0.5459013907836491,0.91,0.0020505194840961163,-0.5491053729320542,0.998,beta1
"('F8', 'O2')",7.267185367343972e-10,-0.5446551888953162,0.5446551888953162,0.26483987507970835,-0.6046728608137498,0.152,0.1705159565969027,-0.598009506739153,0.312,0.11632676171466752,-0.5771243467771522,0.46,0.060383257379303085,-0.549710864064692,0.682,0.020804280779895677,-0.5500370096914505,0.882,0.002902158092374581,-0.5502112186442224,0.992,alpha2
"('T6', 'Pz')",5.263900773052007e-09,0.5438716363231506,0.5438716363231506,0.2892593282741642,0.5650751166228168,0.11,0.18671925962743835,0.5640631592907495,0.28,0.14171848507881216,0.5504897146184631,0.38,0.06619110073311682,0.5307356594224834,0.618,0.023433760249098576,0.5375751559699798,0.88,0.005679962187727435,0.5216125437792138,0.976,alpha1
"('Fp2', 'F3')",7.118853002798434e-10,-0.5393321750096092,0.5393321750096092,0.24659893167011307,-0.5855002302308885,0.098,0.1543576056552454,-0.5824829206408839,0.29,0.11123553491689342,-0.5662673029340453,0.434,0.0423868987317138,-0.5600897780428811,0.766,0.014869995914363391,-0.5486298599938345,0.94,0.001608684674711888,-0.5575536096841615,1.0,beta1
"('F3', 'O2')",2.983597814410006e-10,-0.5358751812447633,0.5358751812447633,0.2515160303983864,-0.6069542567337911,0.162,0.16260537214159806,-0.594488018886589,0.28,0.10863564714150213,-0.5847296072883079,0.462,0.04891479690806395,-0.5597044225996094,0.726,0.017983348738131805,-0.5548373153131418,0.912,0.0022070323652396426,-0.5514733127483895,0.994,alpha2
"('Fp1', 'F4')",1.5086181574549374e-10,-0.5314605581101548,0.5314605581101548,0.2336756814581542,-0.6205379985207189,0.164,0.1507149686480055,-0.606090154834235,0.324,0.10481323376633632,-0.5829487962948479,0.498,0.03701238667461547,-0.58790969612947,0.778,0.013236808883223017,-0.5728223572842748,0.934,0.0016055473252513032,-0.5730727804814889,1.0,beta1
"('Fp1', 'C3')",8.117105240579836e-09,-0.5290084295199546,0.5290084295199546,0.27484405349893837,-0.5894864256954304,0.124,0.21321467287761917,-0.5509349860831038,0.252,0.1463692580548494,-0.5412389375955526,0.422,0.06493066407284734,-0.5295992857594665,0.65,0.03153219305696638,-0.5282626709693434,0.822,0.00514679259965589,-0.5236734123298076,0.984,alpha1
"('Fz', 'F4')",1.0584956040649015e-08,-0.5269942017815333,0.5269942017815333,0.2622814808092669,-0.6617829443982702,0.232,0.18852729742695037,-0.6540819054201901,0.426,0.14390500070083848,-0.6273649549024927,0.548,0.09115653116301202,-0.6012923927070465,0.716,0.042205231602709566,-0.6020252629258029,0.778,0.010074058656740702,-0.5713672702509839,0.95,alpha1
"('Fp1', 'O1')",2.9547597624321583e-09,-0.5251633792138966,0.5251633792138966,0.2676150113616618,-0.5872795934146131,0.118,0.18622114327701098,-0.5548050365866654,0.242,0.12406927139836407,-0.5463306801474501,0.426,0.0652508872596774,-0.5345661706696824,0.648,0.0243553351285165,-0.5309588153699502,0.854,0.0037140570346649204,-0.5252305709919541,0.994,alpha2
"('F3', 'C4')",9.988755862757497e-09,-0.5232540554097469,0.5232540554097469,0.28718306033683433,-0.5619446422914018,0.128,0.20080257277004976,-0.5416394733780671,0.252,0.1546614634552613,-0.5287148738910092,0.362,0.07536331842954642,-0.5166487253173523,0.618,0.03704521050932438,-0.5081850669156686,0.808,0.006448277830534095,-0.5082203753317466,0.976,alpha2
"('F7', 'P4')",1.0606208365316296e-08,-0.5227228679755788,0.5227228679755788,0.30101120889385385,-0.5439540522477113,0.122,0.21031600149683907,-0.5340546205405644,0.228,0.14987126418485547,-0.5168839927896762,0.36,0.07331725575768785,-0.5048072667611404,0.596,0.03432296368203918,-0.502594156218139,0.792,0.005784832959792718,-0.5017037076226991,0.982,alpha2
"('T4', 'P4')",6.215023907739759e-08,-0.5156980443086026,0.5156980443086026,0.31198859470961476,-0.5623621008414785,0.122,0.22722707707655748,-0.5308281821498878,0.234,0.17836180933336232,-0.5099800811848539,0.332,0.09305724222740608,-0.5035180635417349,0.566,0.04637075953365876,-0.4933313467785842,0.742,0.012169452436053689,-0.47809106939908524,0.928,beta2
"('T4', 'C4')",2.9460278768217228e-09,-0.5156448228605395,0.5156448228605395,0.2658086135903427,-0.5960579942436409,0.13,0.1834877411441863,-0.5685590723524043,0.262,0.14525962301019588,-0.5298845145072243,0.386,0.061634165272197054,-0.538832904622573,0.686,0.023101374451058997,-0.5417599497628915,0.854,0.0035130212284079534,-0.5270105100402865,0.996,beta2
"('O1', 'O2')",1.687863605885087e-08,0.5122254933846117,0.5122254933846117,0.28708853607734536,0.5826675416738502,0.136,0.22712002992022998,0.5496097127272436,0.23,0.16485381513647457,0.5479830139078572,0.388,0.08045890035686783,0.5323847958256952,0.602,0.0363743981256829,0.5237499776074722,0.79,0.006994275441054787,0.5104530874106751,0.974,delta
"('F3', 'C3')",3.4846175192323868e-09,-0.5111977172072738,0.5111977172072738,0.25105765071413283,-0.5765507610550739,0.08,0.15093186897227373,-0.5836214555539837,0.254,0.1085980451185367,-0.5585531105589322,0.42,0.04563416542998981,-0.534836937219485,0.724,0.015936591888685323,-0.5364561370702563,0.914,0.0020276542129431885,-0.5292836514056458,0.998,beta1
"('Fz', 'T6')",3.5399576744806297e-10,-0.5108586570636131,0.5108586570636131,0.25396784525703225,-0.5988409831960739,0.134,0.1609475003735424,-0.5904397829004268,0.29,0.10565499225178882,-0.5807627186804752,0.47,0.04878207021418418,-0.5602008738416491,0.738,0.01711099707522885,-0.5556919284481344,0.922,0.0021723575181249724,-0.5601637439304523,0.996,alpha2
"('Fp2', 'C3')",1.3650349323297807e-10,-0.5100898724461658,0.5100898724461658,0.23428261953407697,-0.5985440299201017,0.14,0.14600663160251226,-0.595159084581793,0.312,0.10310730917979684,-0.5762908280623867,0.5,0.03637125441578145,-0.5726175156024719,0.782,0.013095681569350294,-0.5718992723630788,0.936,0.0018143747461917775,-0.5707178121870813,0.998,beta1
"('O2', 'P3')",1.4892863824083793e-10,0.5084908185399898,0.5084908185399898,0.233886828291164,0.6278706034556532,0.142,0.14656188750035676,0.6019192915264019,0.316,0.09427809657023827,0.6115368456942758,0.492,0.03800697210089577,0.5806725295122985,0.77,0.01117976196800739,0.5910210348758916,0.958,0.00146541326007096,0.5721881432991451,1.0,alpha1
"('Fz', 'F4')",2.7700112096881328e-08,-0.5072087921853007,0.5072087921853007,0.29071910574379745,-0.5500889422887819,0.092,0.1905245906413613,-0.5580480522578742,0.258,0.15994106172696232,-0.517126069664155,0.36,0.06922730934867315,-0.5303094235356043,0.648,0.03250375474229254,-0.5131995083236951,0.802,0.00717307725290043,-0.5015880214813219,0.972,beta2
"('Fz', 'O2')",3.7802000435183595e-08,-0.5012519769602679,0.5012519769602679,0.31195610327091733,-0.5182436776114228,0.082,0.22310293952606583,-0.4976347133006478,0.156,0.1521882708694356,-0.5136125324640781,0.346,0.08231503514845499,-0.4763371019523179,0.54,0.03890320381503862,-0.48002710515504904,0.77,0.00742191148959631,-0.47733770625416866,0.964,alpha2
"('Fp2', 'Fz')",1.5715814183057997e-09,-0.5005737819209797,0.5005737819209797,0.24576116367987444,-0.6392945676779547,0.168,0.16140179189874032,-0.6306831218153353,0.37,0.12106930519953568,-0.6036693099657193,0.52,0.05715600912307973,-0.5870211008332051,0.716,0.026309208160063352,-0.5625278396308787,0.852,0.003940820342584008,-0.5665930944739301,0.99,alpha1
"('C3', 'Pz')",2.798123500409459e-08,-0.49913819506678364,0.49913819506678364,0.300762833409276,-0.5437965630656058,0.072,0.22243989053442512,-0.5194419298440566,0.2,0.1495316916063356,-0.5227146221041634,0.33,0.06980841337173622,-0.5008864595948592,0.586,0.03426311880676096,-0.4947397299841658,0.826,0.006937951376005886,-0.48888818834840353,0.976,alpha2
"('O2', 'Pz')",9.836793892371144e-08,0.4938408159423854,0.4938408159423854,0.3393397324371715,0.48520227291852897,0.048,0.2542558458807455,0.4783308769989532,0.156,0.1732629378434131,0.4899078145152257,0.278,0.09110604513103447,0.47697491261246694,0.528,0.04483725196098437,0.47399976637480024,0.76,0.007843594210360032,0.47236124040158145,0.98,delta
"('F8', 'Cz')",4.636345346276976e-09,-0.49353575944899175,0.49353575944899175,0.2768466639137585,-0.585174061686813,0.154,0.1972999590951198,-0.5632231198689726,0.26,0.1525195076413063,-0.5385528654737797,0.402,0.06968249174442526,-0.5263422127766129,0.642,0.034037902822301146,-0.5248615359695049,0.806,0.006198184875542731,-0.5233917960949609,0.968,alpha2
"('Fp2', 'O1')",1.5715814183057997e-09,-0.49233822405977606,0.49233822405977606,0.2664251597051929,-0.5894102969622499,0.154,0.17312405744960435,-0.5782907027744711,0.296,0.12300925638342494,-0.572073797851716,0.46,0.07029274890159114,-0.5408977653811138,0.658,0.025248026022018224,-0.5440060052973901,0.848,0.003691713546337091,-0.5404928793729096,0.996,alpha2
"('Fp1', 'F8')",1.1865189720284433e-10,-0.4895510532715499,0.4895510532715499,0.22210415665055291,-0.6848667670583715,0.224,0.15122882259654047,-0.6400808263927554,0.372,0.12062445877267919,-0.6098030035770535,0.506,0.047510790591513405,-0.6043057617836284,0.754,0.01876851751155876,-0.598154286706679,0.904,0.002602165683251463,-0.5858847839472839,0.992,alpha2
"('Fp1', 'F3')",1.6634673941476742e-08,-0.4885876150301147,0.4885876150301147,0.2625038677664839,-0.5405045361936401,0.046,0.1941663625759573,-0.5136799904991921,0.142,0.12942712190244335,-0.5058123720116533,0.288,0.055520493072285425,-0.5021079320692736,0.652,0.02523581225629102,-0.4887831042942808,0.862,0.0028580039405222916,-0.4983250381545168,1.0,delta
"('F4', 'O1')",5.434141584373259e-08,-0.4862150725831527,0.4862150725831527,0.3277497121242729,-0.47786011694804587,0.056,0.22797990485614406,-0.48522425490819787,0.152,0.16209578911634082,-0.48494626667402213,0.302,0.08635193419685663,-0.46676522720383645,0.55,0.03815405177927019,-0.47067369908003676,0.782,0.008717758949928236,-0.4664495469390929,0.962,alpha2
"('Fp2', 'C3')",1.3844959327467843e-09,-0.48605322468075085,0.48605322468075085,0.2630902573878905,-0.5833690188791059,0.12,0.18908048205558028,-0.5563001466363323,0.258,0.13567808410031848,-0.544846021236742,0.42,0.057815982458726295,-0.5433714133255017,0.698,0.02336088091190409,-0.5400462916442861,0.878,0.003014730917994052,-0.5455217839004105,0.994,alpha1
"('F7', 'C4')",2.6988365281006826e-07,-0.4842374787470021,0.4842374787470021,0.34311102179412284,-0.49115226866984263,0.084,0.2631422249213019,-0.4675195535982056,0.138,0.19965399831049438,-0.45981595675379444,0.242,0.11013697068313927,-0.448733990044826,0.478,0.05494395894101707,-0.448759115143464,0.684,0.014626801636717214,-0.4485099474135042,0.932,alpha2
"('Fz', 'Cz')",1.2394231796150654e-07,-0.4833976241816994,0.4833976241816994,0.3206977444845486,-0.5317035118340143,0.102,0.2478342738206721,-0.5097045038911019,0.216,0.1905478433544553,-0.4946388000703506,0.306,0.10303257375999808,-0.48831889352741464,0.538,0.05514153485430012,-0.484000607072256,0.734,0.014652683736446624,-0.4655607587237287,0.918,alpha2
"('Fp1', 'F4')",1.7861204746369543e-07,-0.48254338990392054,0.48254338990392054,0.3204767258003444,-0.4937190850278417,0.074,0.25363372610995527,-0.48024258105898376,0.166,0.1920910340524872,-0.4567195228706582,0.25,0.09521509131433863,-0.4630361413666289,0.518,0.04918201729011646,-0.4540765763707322,0.716,0.009737805385988275,-0.4589320389641847,0.95,theta
"('Fp1', 'Cz')",2.8394362812110344e-07,-0.4824539045212746,0.4824539045212746,0.3383505963238579,-0.49679310881351885,0.104,0.25896686125062857,-0.4731208917260988,0.168,0.21862688164345756,-0.451507333357564,0.238,0.09555976967893094,-0.4653023151619642,0.506,0.060459679899594596,-0.4426008024823894,0.654,0.016127680366827536,-0.4513752004596723,0.918,beta2
"('Fp1', 'F7')",3.697320682989823e-08,-0.47782655736167773,0.47782655736167773,0.33045784945239626,-0.5083738444259356,0.082,0.22911809593727667,-0.5074730429835546,0.204,0.16274494675647777,-0.49955948824201934,0.274,0.08182283825634827,-0.4820303213325344,0.564,0.03382997083285921,-0.48946693148735904,0.794,0.006969651273310639,-0.4801358067441292,0.98,gamma
"('T3', 'T6')",3.455481128277461e-08,-0.47642041908177835,0.47642041908177835,0.31172872059171935,-0.5267985845791041,0.078,0.22499278330098268,-0.5094446257180804,0.192,0.170383738742231,-0.49638616943976005,0.304,0.079664350822159,-0.49904924735317396,0.578,0.041188126848915395,-0.47694074455975954,0.756,0.008239765206103254,-0.47977335382768366,0.978,alpha2
"('F7', 'C3')",1.3034295030812092e-08,-0.4762915896463807,0.4762915896463807,0.2922695815091559,-0.5895919725454382,0.164,0.1954364259145036,-0.5809575725698339,0.276,0.17118540155883405,-0.5324153399441894,0.354,0.07923424432023984,-0.5340953117070433,0.618,0.030719415849028917,-0.5389499073778138,0.83,0.00791974116461667,-0.5079496368692192,0.968,alpha2
"('T5', 'O2')",1.6896381389159428e-07,0.4739911659104294,0.4739911659104294,0.35081561840579906,0.5173079703662312,0.106,0.25369124056182774,0.5143958765921606,0.196,0.18724077851172502,0.49735559429601445,0.286,0.09999346728063008,0.48023945689864567,0.492,0.04459636265650614,0.480932425619803,0.742,0.014886132661083063,0.4632264567382268,0.91,alpha1
"('F3', 'F4')",3.810382652126735e-09,-0.4735114226683964,0.4735114226683964,0.27205649215722405,-0.5877493204387174,0.116,0.19580492432783989,-0.5687697832786757,0.27,0.14329575988887744,-0.5476995360493201,0.374,0.07021787433553493,-0.53178224551076,0.632,0.02853438041824587,-0.5354113296427572,0.85,0.005130902684457042,-0.5256483812173331,0.978,alpha1
"('Fp1', 'Cz')",1.1713813447013703e-08,-0.4724591798052806,0.4724591798052806,0.27873496806348147,-0.5890647925980358,0.15,0.21937946396963587,-0.5343819889546567,0.232,0.15607086688955096,-0.5231490536470679,0.388,0.06900569172472605,-0.5232164245224797,0.618,0.03750590422906876,-0.5100392291609083,0.812,0.006927370830685306,-0.5102969785803722,0.968,alpha2
"('F8', 'T4')",2.5369272736923016e-08,-0.46748864024007847,0.46748864024007847,0.30058844313628674,-0.5416598248977783,0.094,0.21978324495346374,-0.5035699383919254,0.198,0.1769353899420652,-0.48743737240132706,0.298,0.07803885539879368,-0.5007319477313923,0.606,0.03332514389661883,-0.49357417661647207,0.82,0.006209392749113561,-0.48987963011303215,0.988,beta2
"('Fp1', 'Fz')",1.8753850660109424e-08,-0.46519573334945885,0.46519573334945885,0.267890904764226,-0.5326279247363527,0.052,0.20194193985102374,-0.5015048644651435,0.144,0.13291321076110454,-0.5064828669795631,0.288,0.05603341925099884,-0.5008270183931915,0.644,0.026555777849622857,-0.4846963698630608,0.856,0.0029943554099348636,-0.49647134047501856,0.998,delta
"('F3', 'T3')",1.712744036613645e-07,-0.4651189069946719,0.4651189069946719,0.33577356571103306,-0.5232353314255217,0.124,0.2526525572873616,-0.5102669047308634,0.206,0.1985905499829304,-0.48859715926372094,0.27,0.10530447517334583,-0.4802939256974092,0.512,0.05602895321322253,-0.4729634799131529,0.686,0.012542169601741935,-0.4657988488438437,0.942,beta1
"('T5', 'O1')",9.624337456400188e-08,-0.4649186360480229,0.4649186360480229,0.30341631213260795,-0.5430883561361153,0.066,0.21457931552719708,-0.5368444200747503,0.188,0.15470714064327648,-0.5052629992777206,0.266,0.0671435114233491,-0.5025101033432319,0.578,0.039505134589544695,-0.4892453909961536,0.774,0.007221727659560963,-0.4740495718773542,0.974,beta2
"('F4', 'T4')",9.368572128878543e-08,-0.46149663753369,0.46149663753369,0.3229563168036793,-0.5342441216592728,0.114,0.2422045758647325,-0.5014140090878823,0.196,0.19072091958454115,-0.48380514738481983,0.316,0.0922548327361397,-0.4852764764605764,0.548,0.04737398296783477,-0.47619806416510085,0.732,0.011428437242635873,-0.46487808314725354,0.942,beta2
"('Fp1', 'Fz')",4.119402924948436e-08,-0.46044038122585296,0.46044038122585296,0.2930163184934548,-0.5191779054429067,0.056,0.21490375438900397,-0.49582629418710045,0.154,0.15538095390176776,-0.4817150872927281,0.252,0.06544210724807543,-0.4860544103782639,0.556,0.03321181700766345,-0.47303236954849515,0.808,0.004253643862841741,-0.48277029923742726,0.996,theta
"('F4', 'T4')",3.962998869864108e-07,-0.4603770674072809,0.4603770674072809,0.3380808851932801,-0.5222942124412912,0.082,0.28224939092901963,-0.490514358282492,0.188,0.19884515399485825,-0.4754482630121339,0.238,0.11349821141908072,-0.46521911278810474,0.478,0.06064118435106464,-0.45667830516249514,0.662,0.01633187611008054,-0.44884349535808976,0.912,alpha2
"('Fp1', 'F4')",7.415638362702644e-08,-0.4600620099933807,0.4600620099933807,0.32211708179963583,-0.5280674451327244,0.116,0.22731633626981199,-0.5103993207486378,0.19,0.19064690605198656,-0.48015404689582675,0.306,0.08560036684783218,-0.4910023583686394,0.558,0.03988346392534864,-0.47914812783058475,0.762,0.008928965491625643,-0.4759234557461455,0.962,beta2
"('Fp1', 'Fp2')",6.237000985261584e-08,-0.4597118601212117,0.4597118601212117,0.3197764042111804,-0.5064800611631388,0.066,0.21934463893219056,-0.5050892485250736,0.174,0.1891729177179913,-0.4707360737861657,0.276,0.08278017426809876,-0.4805641653294771,0.54,0.03715608825387598,-0.4723739487942122,0.778,0.00667806067823129,-0.4757958455240218,0.982,beta2
"('Fp1', 'C3')",2.0286111268062455e-08,-0.45764061653951726,0.45764061653951726,0.2896526657623138,-0.5347435813857299,0.062,0.22314692052769663,-0.5027571312263444,0.17,0.15131247316733282,-0.5043361688481477,0.326,0.06959608243896957,-0.5026231383163542,0.616,0.03274788452175052,-0.49293569510950763,0.816,0.005080112840830432,-0.5065137921516378,0.984,delta
"('F4', 'T4')",6.657657723015296e-08,-0.4566420339637209,0.4566420339637209,0.3365768304028043,-0.5234525879773614,0.112,0.24149982543969345,-0.5055504133728465,0.204,0.17664541467976796,-0.5076716084422594,0.336,0.08802013884634102,-0.4876512381624782,0.56,0.05355787705492701,-0.47122065568179833,0.736,0.012175824207513215,-0.4773263353638128,0.938,beta1
"('F7', 'T3')",3.455481128277461e-08,-0.45633103066482983,0.45633103066482983,0.3146062969151099,-0.5536874167489294,0.134,0.2229150349403241,-0.5388356784272634,0.232,0.1648953323380759,-0.5285296304852679,0.37,0.08181698840047598,-0.5121077229156239,0.58,0.040428633861370585,-0.5077521065861904,0.79,0.00803196192791108,-0.49615860364971204,0.968,beta1
"('Fp1', 'Cz')",1.088677321110768e-07,-0.4540264089537538,0.4540264089537538,0.31400585071812853,-0.5249228518727361,0.086,0.25172666384723147,-0.48680352301851443,0.186,0.18150509102206955,-0.47881476031581194,0.268,0.08356921392826466,-0.48078787855728433,0.516,0.04796488535810088,-0.46676510394280707,0.728,0.008802535874030213,-0.475995820469938,0.966,alpha1
"('F4', 'T5')",9.490632385537659e-08,-0.45319179855676006,0.45319179855676006,0.33233598551285837,-0.49740715400221863,0.076,0.22829844394554824,-0.4994643398151623,0.158,0.16413784422069821,-0.5019220695511964,0.306,0.10060100372057545,-0.470602444481685,0.484,0.04678190064009025,-0.4644212078484,0.718,0.011331398169912427,-0.46064869381775353,0.944,alpha2
"('F7', 'F3')",5.28764045114674e-07,-0.452536372395813,0.452536372395813,0.32619060957363355,-0.48953592784544764,0.024,0.22949344218100162,-0.4841704370060997,0.11,0.1870083306567679,-0.45974702284361685,0.19,0.09166395477256048,-0.45703703633650633,0.48,0.04389119619317925,-0.45129606801890254,0.734,0.008898406508772796,-0.44939352334918237,0.976,theta
"('Fp1', 'T3')",5.319941461436203e-09,-0.4516846939364547,0.4516846939364547,0.28327822799004315,-0.5611262013883326,0.12,0.2001348768146987,-0.5439875809940271,0.23,0.1465461988673401,-0.532226696225422,0.392,0.06903880345622508,-0.520252319784574,0.626,0.027270476534619146,-0.5235351483187624,0.856,0.005734504275414762,-0.5034091218419355,0.984,alpha2
"('F7', 'C3')",4.3653715176724864e-07,-0.4502219072368889,0.4502219072368889,0.35708600587655065,-0.46719388000704765,0.05,0.24398802051750493,-0.4845336948456028,0.138,0.2095504534024223,-0.44601380293297693,0.244,0.11354246989798418,-0.4414825581523779,0.444,0.04852242936288619,-0.4577753854394419,0.69,0.011721267256249918,-0.4464042380795397,0.952,beta1
"('F7', 'Cz')",1.3160373741974902e-07,-0.4499226590697008,0.4499226590697008,0.3236247522985905,-0.508405704575261,0.084,0.24219417512157218,-0.4896718543512023,0.184,0.19722314729387513,-0.4715084233199094,0.292,0.09702272112116563,-0.4677870332679219,0.518,0.0453242956853919,-0.4769271685370918,0.724,0.011820512949670823,-0.4653795511490278,0.938,alpha1
"('Fp1', 'T3')",1.2492334319090826e-06,-0.44909622437294566,0.44909622437294566,0.37820164837938597,-0.4666863392657762,0.062,0.31347595041645265,-0.4332648959037128,0.114,0.24152482597800942,-0.4301767005403979,0.218,0.1373649766003536,-0.42051323082070147,0.414,0.07386026973552207,-0.43242554576030684,0.63,0.01990051676034375,-0.42251214900121653,0.898,alpha1
"('T6', 'C4')",1.8124881451442087e-07,0.44609412111896296,0.44609412111896296,0.3311354137864033,0.5112327688075001,0.056,0.24214667060910045,0.4958890466846577,0.154,0.19360673702047404,0.47882953851646126,0.266,0.09724869066276473,0.46533503311538527,0.516,0.04402277567225963,0.4704293435699657,0.748,0.012460764536270161,0.4575872060932018,0.944,alpha1
"('Fp2', 'C3')",7.943843398510176e-07,-0.4457787634861853,0.4457787634861853,0.3558374722942483,-0.4618553294621203,0.046,0.28479155164975933,-0.44240132308650665,0.14,0.21021255518649998,-0.43987282316002524,0.218,0.11320879206358352,-0.44097507543377534,0.446,0.06934731237060772,-0.4283104234854135,0.614,0.016134496920097056,-0.4368575882238328,0.912,delta
"('F4', 'T3')",1.963442791822042e-07,-0.4437050690356821,0.4437050690356821,0.3416548582259994,-0.5021974785143085,0.104,0.2551134268944635,-0.4936788790067303,0.188,0.20280590630755327,-0.4675451598186696,0.282,0.11206095180743923,-0.46404482619237447,0.514,0.05612177581267172,-0.4557370095644332,0.698,0.014196031191059853,-0.4532634348988438,0.924,alpha2
"('F3', 'Fz')",1.0345424943436061e-06,-0.44338358542219136,0.44338358542219136,0.3661523606719935,-0.44870573172192935,0.046,0.262114902410993,-0.451155830195547,0.116,0.2195167297839789,-0.4337209716827932,0.204,0.11467983033747663,-0.43056897308441117,0.448,0.060658590773929516,-0.43322319480012167,0.644,0.015996868107195732,-0.4299391485284629,0.922,beta2
"('Fp1', 'C3')",1.787204294042666e-07,-0.4418241041516581,0.4418241041516581,0.3283311787891837,-0.4850317189636831,0.04,0.2416024159620259,-0.4676398047187097,0.12,0.1756738987897782,-0.4640448415694325,0.242,0.08585509964079849,-0.45861106634328097,0.49,0.0442628227348795,-0.4557158649783948,0.74,0.008150717093775694,-0.4565353973930916,0.972,theta
"('T4', 'Cz')",1.963442791822042e-07,-0.44079737214377807,0.44079737214377807,0.33546698324447494,-0.5000522223509791,0.078,0.2609542836459188,-0.4852069459307376,0.184,0.18979669079649933,-0.4787318492623467,0.252,0.10633829279188511,-0.4624396124695361,0.52,0.0533903436482822,-0.4608744415534991,0.704,0.014963190215510585,-0.45450478897192764,0.916,alpha2
"('Fp2', 'T5')",3.0433586475213256e-07,-0.44066341499771006,0.44066341499771006,0.3410688633071457,-0.5210992296135375,0.08,0.2558921637173305,-0.48325442626733967,0.166,0.19525486031568953,-0.4946380385938632,0.31,0.12143763796515732,-0.45100205762066553,0.42,0.06560752620294541,-0.4574634042107445,0.67,0.015929848320513657,-0.451221030295006,0.916,alpha2
"('T6', 'O2')",1.216481354538257e-07,-0.4406454237529073,0.4406454237529073,0.3114436932572106,-0.5234685908515097,0.064,0.21486735869147808,-0.5169250010537834,0.176,0.16155722888698473,-0.5024233385342969,0.316,0.08690092503118634,-0.4819088100749514,0.56,0.04217227112627203,-0.4767149365215117,0.736,0.008431947855788541,-0.4651304503929143,0.964,beta2
"('F4', 'F8')",8.984939167587303e-07,-0.43805476454937786,0.43805476454937786,0.3582412299753636,-0.45797924197456014,0.052,0.27275208505894805,-0.441455327733747,0.11,0.212328464582551,-0.43284701662505465,0.194,0.11241211705855667,-0.4349336140825012,0.434,0.05785423289189085,-0.42882629627952923,0.668,0.0177503778559483,-0.4252419763992469,0.912,gamma
"('F3', 'F8')",1.3103838186917186e-06,-0.43740586728876485,0.43740586728876485,0.3762574540226573,-0.45591137599680215,0.046,0.29380215498374024,-0.44577381506514924,0.12,0.23913834989418267,-0.4429201744750919,0.236,0.13611554503320417,-0.43414940312499667,0.426,0.07724031778799427,-0.4321516291024869,0.604,0.02012611417902941,-0.43068764406438226,0.89,alpha1
"('F3', 'C3')",1.712744036613645e-07,-0.43417656309413266,0.43417656309413266,0.33675753640658174,-0.47020580742364665,0.052,0.22559037774014357,-0.48154720298522274,0.138,0.18258849860466767,-0.457046180469067,0.222,0.08468890899486392,-0.4669699562765956,0.528,0.04090651742569512,-0.46065426948244714,0.772,0.00988810235853945,-0.45756924597537435,0.968,beta2
"('Fp2', 'Cz')",1.2514719034733825e-07,-0.4339361858308656,0.4339361858308656,0.3226186589432322,-0.5195296281290566,0.096,0.249329482145628,-0.49369327970104776,0.21,0.1851427576217094,-0.4743029093457367,0.284,0.09741102434117128,-0.4716836361205726,0.518,0.05364046547672289,-0.46347560994484277,0.728,0.01210851220497107,-0.46690281518430776,0.95,alpha2
"('T4', 'C4')",7.51260015183756e-08,-0.4338618214773242,0.4338618214773242,0.3132715330012184,-0.5394138232380725,0.096,0.22754403073748258,-0.5189284857383161,0.216,0.18834231011249433,-0.48605690150956443,0.314,0.08738520626168227,-0.4921147113494342,0.56,0.04361473989015778,-0.48335203022978745,0.764,0.010195771378076682,-0.4745816885775893,0.956,beta1
"('F3', 'C3')",6.52364035270858e-07,-0.43379085498748016,0.43379085498748016,0.34786998089930127,-0.4662929449585409,0.052,0.24441100297018548,-0.46691138853826225,0.118,0.205904405090298,-0.4531895874699404,0.242,0.11334821325733324,-0.44331445989242274,0.442,0.052964007795294234,-0.44456076440493986,0.696,0.014184583480723392,-0.43341333303260465,0.954,alpha2
"('F4', 'C4')",1.712744036613645e-07,-0.4330886577219365,0.4330886577219365,0.311288291165479,-0.5414631024869498,0.094,0.2212291818962036,-0.5354929467475867,0.21,0.1824357112064372,-0.49694317755155826,0.308,0.08445508896870488,-0.5024328781552356,0.576,0.04494556623939566,-0.4802758899778693,0.748,0.009425882834648283,-0.4734300720719717,0.954,beta1
"('F4', 'C3')",4.802414773530155e-07,-0.43297386776774366,0.43297386776774366,0.3370076170872013,-0.4906356947733168,0.078,0.24885452550695952,-0.4867133391538544,0.166,0.21909950040665524,-0.44979210680243015,0.252,0.11006273288155155,-0.452878938967527,0.492,0.06491165622885685,-0.4346471934331341,0.672,0.015778826339290133,-0.4431967120619431,0.9,beta1
"('F7', 'T3')",6.51260066791117e-07,-0.4326374138255937,0.4326374138255937,0.3474483116470811,-0.49435979594310847,0.092,0.2663813610898086,-0.4810304179711842,0.17,0.2230393944862611,-0.45895840613958727,0.24,0.11425260520409952,-0.4693965352183811,0.498,0.0686836512273768,-0.4451418887731659,0.642,0.0191783617946877,-0.43747060759037987,0.9,beta2
"('F3', 'C3')",7.291546332748359e-07,-0.4325078835644338,0.4325078835644338,0.34679748954217254,-0.4667014002912267,0.03,0.25602750023821086,-0.45185012679798425,0.08,0.1830550504143345,-0.45084114001102976,0.176,0.09440226324418675,-0.44998509434772865,0.474,0.046554222642981306,-0.44514064158463734,0.714,0.011166585022721527,-0.43597036140107936,0.964,delta
"('Fp2', 'F3')",2.2234277541763517e-06,-0.432349431709807,0.432349431709807,0.3618023063410944,-0.4725118284936523,0.05,0.2821816508359774,-0.4468433285183306,0.086,0.22833326122126163,-0.43607841163060557,0.188,0.13979212734082236,-0.4259662912752341,0.39,0.07957955493117513,-0.42127704207411043,0.586,0.02164659012719499,-0.4267540359503886,0.872,theta
"('Fz', 'F8')",1.5940296523706384e-06,-0.43208345828661765,0.43208345828661765,0.3756083160223104,-0.46351795291314996,0.072,0.2682365254161342,-0.4725251234557044,0.174,0.25007810684118326,-0.43248554518158366,0.234,0.13550444409660917,-0.4359517923636811,0.434,0.07395723639273229,-0.42894406213076547,0.616,0.021534386651003268,-0.4238742112955741,0.888,beta1
"('F8', 'C3')",9.16736511944212e-07,0.4304364371657325,0.4304364371657325,0.36643246128770124,0.46300783910869325,0.04,0.29777684941539356,0.44123624336352896,0.106,0.2205810449910486,0.4407763291172315,0.208,0.12972967918098305,0.4295347803881104,0.408,0.06534214205969865,0.431913282324845,0.646,0.019671138731189513,0.4304507550715421,0.892,gamma
"('F7', 'Fz')",3.951255403050604e-07,-0.4299742435304042,0.4299742435304042,0.3449309637232264,-0.47726387825872857,0.062,0.2536045944274378,-0.4630138317393644,0.132,0.21367962872641288,-0.43886816060434525,0.194,0.11500720876282176,-0.4453442557940117,0.464,0.0493896882667901,-0.4499243149153005,0.718,0.010820988487010137,-0.451537267860221,0.948,beta1
"('P3', 'Pz')",3.822792995750569e-07,-0.4297864047983417,0.4297864047983417,0.35582977722090336,-0.5018082727071529,0.068,0.25980819359719354,-0.5026795925878329,0.194,0.17509751447152014,-0.5102737864238293,0.328,0.11481630068029014,-0.47486111896244654,0.506,0.06183634895057657,-0.46880047654477375,0.67,0.015415133481041426,-0.46103422744370737,0.922,alpha2
"('Fz', 'F8')",9.39960063609178e-07,-0.42939027522009976,0.42939027522009976,0.3723361134113675,-0.49443738907031143,0.088,0.26686526911510106,-0.5145582763666791,0.224,0.2234377039257586,-0.4810068595218154,0.326,0.1349459681185512,-0.4736801528354602,0.472,0.07583378133365727,-0.44899372109916375,0.594,0.020654324337566483,-0.4499190676390331,0.894,alpha1
"('F7', 'F4')",6.004263768790081e-07,-0.428367877832727,0.428367877832727,0.3549386014430589,-0.4963304769365865,0.074,0.2778711924706429,-0.47421794974937465,0.144,0.22875405732362114,-0.45901592310463835,0.266,0.13534820482641838,-0.4397359214174307,0.426,0.06669050636692357,-0.4552048061299076,0.652,0.02075460971668908,-0.44607193174148274,0.902,alpha1
"('F3', 'Cz')",2.3573297360343156e-06,-0.42812638484409354,0.42812638484409354,0.3752235677641957,-0.4529770349261892,0.036,0.27733789970021866,-0.4491277769262537,0.116,0.244170418590093,-0.4219059561349223,0.184,0.11827005588869512,-0.43436047065150957,0.402,0.0758261267153516,-0.41177131448052945,0.582,0.024107500726185668,-0.4120838047420794,0.872,beta2
"('Fp2', 'C4')",2.019583977961134e-05,-0.4278183286951177,0.4278183286951177,0.4161003712675209,-0.4096410438527687,0.042,0.3570960575377539,-0.3919502102159741,0.11,0.27737215155190015,-0.39392011077068434,0.154,0.18340270904709086,-0.3830849569380135,0.3,0.12563592215203068,-0.36572955613961283,0.446,0.04001287793374085,-0.38167960154255787,0.766,alpha1
"('F4', 'Cz')",1.6014235851896183e-08,-0.42749077277222663,0.42749077277222663,0.29282647512554155,-0.5675318421470864,0.106,0.19055812069748668,-0.5763540258666039,0.278,0.1638987333646046,-0.5202302238579575,0.34,0.06930650896035018,-0.5277741865739753,0.638,0.03416176096209708,-0.5047490213793303,0.772,0.006287751384157777,-0.5083422042192163,0.972,beta1
"('F4', 'F8')",1.9676358734889786e-07,-0.42722079246329886,0.42722079246329886,0.3435741804250514,-0.5449489834953656,0.124,0.23947101269381546,-0.5480973914519395,0.272,0.20585201526093821,-0.5232810182443443,0.38,0.11268672937684494,-0.5052559828262941,0.534,0.0620493516984976,-0.48883644433246515,0.688,0.014839718591074568,-0.4817345867154092,0.924,alpha1
"('T3', 'P3')",1.782445380855019e-05,-0.4245207894600023,0.4245207894600023,0.4211914479476091,-0.40723867772325617,0.036,0.3550145360086344,-0.39315725715807887,0.096,0.2909011028680986,-0.37945341642988545,0.138,0.18386884745366985,-0.37563724931781417,0.284,0.11194849915271296,-0.3809682972341636,0.476,0.04467523814203363,-0.3711400425363644,0.752,beta1
"('F3', 'F4')",2.3281827719362447e-07,-0.42444453599349996,0.42444453599349996,0.33197228742327284,-0.5089828027805895,0.072,0.23165362193221553,-0.5080733522160878,0.186,0.2011485747975864,-0.4629509588906272,0.24,0.09949744598546015,-0.4748405309524884,0.514,0.05087848070096861,-0.4619763525240804,0.726,0.011580467627390085,-0.46353359225887963,0.95,beta1
"('Fp2', 'C4')",1.6746247115947116e-05,-0.42402127601946027,0.42402127601946027,0.4128834961398252,-0.40333930158221765,0.04,0.3488810556219039,-0.3865827732641591,0.094,0.2789383916849,-0.3822743692708118,0.14,0.18090297114713907,-0.3806257070942458,0.308,0.12517515106132177,-0.3677455307037352,0.432,0.03608458544678089,-0.38224818286408335,0.796,delta
"('Fz', 'T4')",4.2140612533792055e-07,-0.4233603473566202,0.4233603473566202,0.3389801269164233,-0.5019921378596001,0.082,0.2849435702695625,-0.452725847217356,0.144,0.2078206736049678,-0.4615038630751026,0.252,0.11977000886616933,-0.4462494781339224,0.474,0.06154809328559746,-0.44150976469945413,0.646,0.01565489943611549,-0.4431640150540486,0.918,alpha2
"('F7', 'T3')",2.2586937677865197e-06,-0.4195326394279418,0.4195326394279418,0.38511565556557037,-0.45224552759901715,0.062,0.3083822690944899,-0.4287217615746341,0.12,0.24813380124148285,-0.4306225868737489,0.22,0.1431254577522754,-0.42899691423958564,0.438,0.07750380550650356,-0.42362268467699155,0.592,0.023496172046178113,-0.415519573705952,0.85,alpha2
"('O2', 'C3')",6.86128706811385e-07,0.41893044364448667,0.41893044364448667,0.3701806824493705,0.4956748596683857,0.076,0.270010863679901,0.4776720513236871,0.152,0.20800298528770633,0.46905612511396166,0.24,0.10694140722840892,0.4594987479782137,0.462,0.07524782322152675,0.44419676993935137,0.632,0.019830600519926602,0.4262343978105456,0.91,beta2
"('O2', 'Cz')",1.5462863788004093e-07,0.4177209259978695,0.4177209259978695,0.3388108094714966,0.516575628680856,0.094,0.2447287646694999,0.5109133116017467,0.186,0.16823084754059034,0.5237518621536323,0.354,0.10503003562224751,0.4790644156473788,0.522,0.05231681305072299,0.48666517197800985,0.732,0.01389980596553147,0.4621166057322421,0.926,alpha1
"('T3', 'C4')",1.7821357413502654e-05,-0.4176352933194568,0.4176352933194568,0.4193635068285756,-0.43405383217642435,0.064,0.3463698682979909,-0.4047789576738214,0.094,0.2691368606246998,-0.4101304648943135,0.16,0.18410542786670073,-0.38710291641165895,0.304,0.11819477520699621,-0.3822596790323845,0.482,0.04640235819694413,-0.37047158550192466,0.744,alpha2
"('F4', 'Pz')",3.671441300695986e-06,-0.41674862466169305,0.41674862466169305,0.4006429659449362,-0.43480308315201266,0.054,0.3079488409532683,-0.4318168877833492,0.106,0.25017543139173326,-0.4178543711788968,0.196,0.14667803909013472,-0.4135563673769387,0.368,0.08917515680869263,-0.4096468958298677,0.562,0.03169480063362159,-0.40200081006155336,0.83,alpha2
"('O2', 'P3')",1.1252293969947984e-06,0.41491163290743394,0.41491163290743394,0.3831658878133466,0.4490021734473823,0.038,0.2918099778546967,0.43320688778816296,0.096,0.21954633138499166,0.43519125567915884,0.196,0.1255365189009651,0.43339407181735207,0.42,0.060017280387558665,0.43270511650903537,0.644,0.017334606808310997,0.425585925172913,0.902,delta
"('O1', 'Cz')",1.5940296523706384e-06,0.4137103074279631,0.4137103074279631,0.3928929147987446,0.4563817253511542,0.054,0.29540359095813706,0.44603073840383206,0.128,0.2068243140046349,0.4586548301969722,0.216,0.14472440361172434,0.4291251407344244,0.396,0.07655755052685273,0.4354227306917304,0.622,0.02128072802495589,0.4195717233246875,0.89,alpha1
"('Fp2', 'Cz')",3.973600871446386e-06,-0.4135553161327408,0.4135553161327408,0.38113934351848683,-0.4664304690910204,0.072,0.30827126903816954,-0.44353899430779736,0.17,0.2539902709336623,-0.43460211789243003,0.232,0.1506051588736127,-0.42531620951628113,0.396,0.09654839753508687,-0.4082293115244717,0.542,0.02919505700277423,-0.4220601049458498,0.832,alpha1
"('Fp1', 'T3')",1.0395664499619642e-06,-0.4128245292721654,0.4128245292721654,0.3707249166811221,-0.46641054942653454,0.074,0.2962725392898812,-0.4491832820641489,0.124,0.22620050565280891,-0.4518942580282947,0.24,0.14872247693303195,-0.4282095563933522,0.4,0.0756502857066898,-0.42917557482392793,0.606,0.019836299328128998,-0.43057595849392943,0.888,theta
"('Fp1', 'C3')",6.986787812607259e-07,-0.4117946800601774,0.4117946800601774,0.3489508414215381,-0.5011977670206313,0.072,0.2765421550805959,-0.4749724994200454,0.152,0.21623749644979784,-0.46801626343254177,0.28,0.12357049855516301,-0.450136879288359,0.44,0.06554388519367034,-0.4563463391534683,0.694,0.021836437906586893,-0.4344200234172101,0.87,alpha2
"('Fz', 'C3')",4.5859600235864465e-07,-0.41140771887354505,0.41140771887354505,0.3557965510517345,-0.47832326923617635,0.074,0.25721607584678763,-0.48186914619368576,0.172,0.2122392790603013,-0.4640452433031517,0.262,0.12161700955963274,-0.44531156601814326,0.472,0.0643463507719932,-0.4510880869987134,0.688,0.017504860706968408,-0.4370088579132979,0.906,alpha2
"('F7', 'C3')",6.473813277532983e-07,-0.4107700160571725,0.4107700160571725,0.3574432236463652,-0.46126423640219166,0.054,0.25625117789218826,-0.46331273935461226,0.12,0.21523924971729513,-0.43717897466376854,0.214,0.12150070327283909,-0.4339150609090768,0.438,0.05941246120226143,-0.4393378401527967,0.688,0.015286895792145693,-0.4302812404103053,0.93,alpha1
"('T5', 'O1')",2.0439745913237636e-06,-0.410639399354716,0.410639399354716,0.36692255948269026,-0.46021221934175627,0.034,0.28866817534982875,-0.44833601983835986,0.104,0.22608888604759608,-0.4310810935976482,0.18,0.11906724411846574,-0.42706187737866136,0.394,0.074749154804686,-0.42444170954059746,0.65,0.02072958011267602,-0.41091959730130556,0.896,gamma
"('Fp2', 'F7')",1.0727556673229348e-06,-0.4088229887246321,0.4088229887246321,0.3749830778318354,-0.448814647806963,0.05,0.2977305994814301,-0.42794205155715737,0.118,0.24342311097735841,-0.4247019205786738,0.21,0.13289012920068216,-0.418411291391614,0.376,0.06282455090031593,-0.4336907438046796,0.634,0.017553628714130784,-0.4319526936156164,0.916,alpha1
"('Fp2', 'F4')",1.4618742229424042e-06,-0.40624142100716154,0.40624142100716154,0.3488908305465639,-0.45920150631206397,0.032,0.28108018280752245,-0.43793078360132354,0.096,0.21332073358739126,-0.4408387719764442,0.188,0.12448387337090061,-0.43332901108208444,0.436,0.07700067031935069,-0.412716146121923,0.586,0.017800799207429,-0.4269237152883885,0.9,delta
"('Fp2', 'T4')",1.3788842211067706e-05,-0.4059656854218902,0.4059656854218902,0.4076666057817056,-0.4128705626097616,0.04,0.3506582958457541,-0.3872667976639667,0.082,0.2774702273915576,-0.38429645563829096,0.13,0.17426641198750065,-0.3844936631859119,0.312,0.11660507799318379,-0.37484494867041523,0.464,0.03697910936025542,-0.38020806963430487,0.78,delta
"('Fp2', 'C4')",1.3788842211067706e-05,-0.40463393897459615,0.40463393897459615,0.4106552726090383,-0.41067765775816867,0.038,0.3332559919781829,-0.40607951996414254,0.096,0.2746022226670344,-0.38783261978814726,0.126,0.17275882962387504,-0.3821106899531281,0.286,0.1180516798870856,-0.3681979411354017,0.442,0.03320593811496662,-0.3834888291615084,0.802,theta
"('O1', 'O2')",8.859394017526756e-07,0.4038153057700577,0.4038153057700577,0.35653301095142587,0.4861995445226868,0.058,0.28896732962529287,0.4566388008358229,0.128,0.22606895878285654,0.4380866663278961,0.202,0.11094225698357352,0.450526205757041,0.478,0.06813056198515954,0.43454582450828316,0.65,0.01782698658244436,0.42595010774134523,0.902,beta2
"('C3', 'Cz')",4.587334157879591e-06,-0.4029623987288803,0.4029623987288803,0.3453411194464559,-0.49386589933190217,0.048,0.2605350354006054,-0.48502252941736773,0.156,0.22496958545412085,-0.4507059371536432,0.202,0.13691255964056548,-0.4406737766851168,0.408,0.08167672255522018,-0.4242576128519456,0.606,0.02201111092473496,-0.42591436203529054,0.874,beta1
"('T3', 'P3')",6.126033682788459e-06,-0.4028527582502853,0.4028527582502853,0.39102778135861804,-0.4314979355534994,0.022,0.3217416280663146,-0.40067681816794903,0.088,0.2460108631091401,-0.4004849695209816,0.116,0.1463581075764623,-0.39820800223518177,0.336,0.0847409348260673,-0.40461781991894963,0.564,0.027988029141722513,-0.38846041359855993,0.826,alpha2
"('F7', 'Fz')",3.1978919032602202e-06,-0.4027721528194739,0.4027721528194739,0.3933367211975478,-0.43491591089527487,0.054,0.30652542224894935,-0.42784048954836273,0.102,0.25106069773521666,-0.4109310581665012,0.18,0.1529857482904133,-0.4033294379674968,0.356,0.08459341890636327,-0.40772549959519455,0.552,0.02553083327751774,-0.41110627618646284,0.85,theta
"('T6', 'P3')",3.283317325661386e-06,0.4015717619859891,0.4015717619859891,0.36978063745731854,0.49680245897133746,0.062,0.2951893555274725,0.4640472259164441,0.148,0.24658891575506092,0.4527322819520306,0.222,0.15412425736495494,0.42399977109740666,0.382,0.07908849789913365,0.436698122951777,0.614,0.029441277482434105,0.41848415276436124,0.828,alpha1
"('Fp2', 'F8')",1.2995277486927182e-07,-0.40106431522108943,0.40106431522108943,0.33569445532711756,-0.49318235933763127,0.07,0.23963255299818212,-0.4811194560663512,0.14,0.1870746760549149,-0.46498475509905635,0.246,0.09841953204820379,-0.4637675389334951,0.484,0.04461982213047009,-0.4660405498061035,0.744,0.008502987097045665,-0.46702458126739277,0.968,beta2
"('F7', 'T3')",7.676957399219181e-06,-0.40086187791354505,0.40086187791354505,0.4014968575092499,-0.4303099451188667,0.036,0.334597433435099,-0.4034133295960617,0.084,0.252048521986344,-0.4110921717306859,0.164,0.16288390232130945,-0.40156503129064985,0.356,0.09123343360429746,-0.3933462198163366,0.536,0.031168098475069697,-0.3904304083963189,0.822,delta
"('O2', 'C4')",4.3995432675675895e-06,0.39949022869997847,0.39949022869997847,0.3985983395167362,0.4296793002289661,0.04,0.31362552302807706,0.4145997800438961,0.07,0.23274274077761978,0.4243072555258549,0.178,0.15246460411114715,0.4036556523076748,0.318,0.0841772169600237,0.40370358708273846,0.572,0.02585493020866521,0.39694611637951016,0.85,alpha1
"('F7', 'O1')",1.1711668644507468e-08,-0.3980891307115261,0.3980891307115261,0.28522614525093387,-0.5544732872955236,0.112,0.2087082096624728,-0.5199327037694313,0.204,0.15577599190400573,-0.5158969820810232,0.344,0.08947802933831916,-0.49196296836572356,0.572,0.034204476159901416,-0.4968089817424642,0.78,0.006153488722338043,-0.4956471917391718,0.976,alpha2
"('Fz', 'F4')",8.407655229002204e-06,-0.3946479237176307,0.3946479237176307,0.41651928995250315,-0.4187012356484427,0.034,0.32430224043141376,-0.4256356292700786,0.12,0.2939479105745402,-0.38800805153117107,0.156,0.17357052516063187,-0.3928136706534822,0.316,0.1095713899923539,-0.39586723313388755,0.508,0.03560233289113091,-0.3841906038054588,0.806,theta
"('F4', 'T4')",1.3488309194081563e-06,-0.39452167015890566,0.39452167015890566,0.36395488575927193,-0.4797929781836515,0.082,0.2911457137959694,-0.4424357938295306,0.126,0.2344724867160036,-0.43282709457900825,0.226,0.12142366521777377,-0.4415291161953689,0.434,0.07524693708535309,-0.4263221322585578,0.608,0.0232155718906147,-0.42065231966031225,0.87,gamma
"('T4', 'C4')",4.978085860130025e-06,-0.3940329922503386,0.3940329922503386,0.39291516549445243,-0.42367011900909307,0.022,0.29237597662867004,-0.41958906915874045,0.054,0.2282984559661391,-0.4085243891773076,0.118,0.12287395624315317,-0.4102939054598034,0.344,0.07637109848429532,-0.39533347306354877,0.528,0.023161764097140283,-0.3942181282821651,0.88,theta
"('O1', 'O2')",1.5027570093244613e-06,0.3925624204270496,0.3925624204270496,0.3629096034933212,0.5105896569011549,0.09,0.3012255893325695,0.46896272534723826,0.146,0.24416429060007702,0.46050163617169304,0.26,0.13526568949797493,0.45995929015863046,0.436,0.07175347434647154,0.4544432123599563,0.616,0.02439537797633644,0.4361253830696215,0.852,theta
"('Fp1', 'C3')",4.882216804753492e-07,-0.39229860939883177,0.39229860939883177,0.36627406240739985,-0.4760694989364504,0.076,0.2730755967650744,-0.4665358436618072,0.158,0.2159837516522546,-0.44845685432566873,0.238,0.1121358012310746,-0.4569664477196355,0.446,0.05797780640349971,-0.4443194682150551,0.656,0.01714356976164803,-0.44507564703631197,0.912,beta2
"('F3', 'T3')",1.2411754936515526e-06,-0.3922820048778787,0.3922820048778787,0.3584042480253214,-0.510364781762039,0.106,0.2807031367501508,-0.49832929090093026,0.192,0.24016027107950166,-0.4587631496097047,0.246,0.13555015541274046,-0.4792629877826345,0.456,0.07616560064713541,-0.45016553414010224,0.624,0.025823993743100793,-0.42877845915208984,0.846,beta2
"('Fp1', 'C4')",3.1978919032602202e-06,-0.3919540200706046,0.3919540200706046,0.3811168143538932,-0.43502623041440086,0.036,0.31179094008854974,-0.412063631868,0.112,0.2492628163195806,-0.3985007551038053,0.152,0.13393887568754953,-0.4076611524931338,0.326,0.09128448298540848,-0.39497220832870344,0.548,0.020598578791846872,-0.40580345206254614,0.896,theta
"('Fz', 'C4')",1.2927592446956966e-05,-0.3915362986971912,0.3915362986971912,0.3957611861776996,-0.42943091849487663,0.032,0.32485112478993644,-0.41644755313468046,0.088,0.26570704135706874,-0.39941322043105737,0.154,0.1560717219806061,-0.39485789847582237,0.288,0.09312845936324801,-0.3890539905816204,0.5,0.028637714133270896,-0.3806175574450324,0.822,beta1
"('O1', 'C4')",3.8125656420574134e-06,0.39014118635154016,0.39014118635154016,0.396988637487143,0.4432997318099392,0.06,0.3144539714987501,0.42745261345991686,0.1,0.2284840195882931,0.4366230560838454,0.214,0.1592975231286825,0.40536048824550547,0.362,0.09177788271581006,0.41111215991841443,0.566,0.024759693676546894,0.40822049045000036,0.864,alpha1
"('T3', 'C3')",1.4369905078819351e-05,-0.3898342314386646,0.3898342314386646,0.4317492727982375,-0.4210948387096066,0.068,0.32924598561661594,-0.4331761976213953,0.148,0.286780248452987,-0.39622376686980576,0.16,0.17262537027479868,-0.40822527191246566,0.356,0.10655344849445804,-0.3924689258325181,0.508,0.04241097946799763,-0.38394215471624027,0.748,beta2
"('Fz', 'T4')",6.597896645420232e-05,-0.3897420291388519,0.3897420291388519,0.45704463926808103,-0.39394983310489873,0.048,0.3835165566080475,-0.3714914139844598,0.096,0.3204860123415517,-0.3658073462470216,0.124,0.21518891921185485,-0.35933602268368886,0.254,0.15998730649063542,-0.34919199706086457,0.372,0.06274910008628266,-0.3543849883456142,0.67,beta1
"('Fp1', 'Cz')",2.7208445547461333e-05,-0.3886864882958731,0.3886864882958731,0.4115119931988068,-0.42247503393745434,0.04,0.3631958114716873,-0.37869428390550663,0.08,0.29617311895102894,-0.38157729060967766,0.152,0.18760455318148325,-0.37456466862728116,0.296,0.1298934114491501,-0.36693855869002967,0.436,0.03935131304009417,-0.3775000221727755,0.756,delta
"('Fp2', 'C4')",1.782445380855019e-05,-0.3876059015146255,0.3876059015146255,0.4165273895087514,-0.42029231039257187,0.052,0.34789395988270433,-0.4000394782720952,0.106,0.3091176855186392,-0.3697772921507282,0.138,0.19400357672391544,-0.3875942133599226,0.336,0.11647045480244396,-0.37697102780327807,0.474,0.04405825553007795,-0.37128296394875165,0.756,beta2
"('Fp1', 'C4')",1.5027570093244613e-06,-0.3858575741917557,0.3858575741917557,0.36393195935756134,-0.4684650134539358,0.07,0.29245569258943227,-0.4400152176938726,0.112,0.24578285531163502,-0.4078735115468022,0.184,0.13047343892841257,-0.42802076763999497,0.404,0.07803120017858728,-0.41065232902874077,0.586,0.021856843547515586,-0.4145845007133598,0.876,beta1
"('T6', 'O2')",1.3788842211067706e-05,-0.38493616840103456,0.38493616840103456,0.4059069709284682,-0.40922575591353644,0.018,0.32423264084306885,-0.394482716610494,0.048,0.2678692929959774,-0.3907035479954971,0.104,0.16147705555089809,-0.3887776166429254,0.304,0.104835242603635,-0.3717494137863251,0.464,0.037556415960785926,-0.37257100348672284,0.778,beta1
"('F3', 'Fz')",2.2234277541763517e-06,-0.3845200306120264,0.3845200306120264,0.3873487005291372,-0.4614269999815168,0.066,0.30667837592806424,-0.435159608861901,0.1,0.24519364814536018,-0.4235597531718737,0.182,0.1601060593070109,-0.41298943580883046,0.368,0.08873964831628131,-0.4124123652267816,0.578,0.026732685432568983,-0.41305517062088704,0.856,theta
"('T4', 'C4')",1.6267450054692411e-06,-0.3794562656163641,0.3794562656163641,0.3683856756605031,-0.45531529188714637,0.042,0.28089320284678443,-0.4434067800710065,0.086,0.2258388156061835,-0.4227850017498226,0.166,0.11412264586566143,-0.4332075019339602,0.41,0.06195435980075691,-0.4183795593591708,0.606,0.018537384585052916,-0.42108887664632483,0.908,alpha1
"('Fp2', 'Cz')",5.88552571934087e-06,-0.3790884951006489,0.3790884951006489,0.3988346243455132,-0.44355989104735566,0.068,0.3204212311217769,-0.4356424002349406,0.136,0.2907756677168059,-0.4049361003452036,0.212,0.15877039926679773,-0.41488262407470444,0.364,0.10718269215324211,-0.3883190017705993,0.472,0.035438512228576725,-0.4020337862411427,0.818,beta2
"('O2', 'C3')",8.021035248104389e-06,0.3771468900557497,0.3771468900557497,0.4271322441547835,0.4352564243539344,0.054,0.3217673530015373,0.4294162273734508,0.104,0.252714817123187,0.4394312634227899,0.216,0.18116258826947854,0.3994803705587467,0.326,0.09961150977525512,0.4021364239235951,0.528,0.040470853990492606,0.39086544922555133,0.78,alpha1
"('F4', 'C4')",1.434001765303117e-05,-0.37712026515444014,0.37712026515444014,0.40451212954123544,-0.4237525433302587,0.042,0.3110176411835041,-0.42108477530666943,0.1,0.2774261692408749,-0.3960659644864423,0.162,0.1671287693277272,-0.40667406314116594,0.394,0.1093852097521164,-0.3903150251791651,0.496,0.041394902266491077,-0.3893049399745094,0.786,beta2
"('F3', 'Cz')",5.685632400760815e-06,-0.37703561074790115,0.37703561074790115,0.37345152256521047,-0.4584234489588233,0.052,0.326187824874515,-0.42060945021030993,0.112,0.27336523128325035,-0.39942713046505407,0.162,0.14802724591242994,-0.4126288870997492,0.374,0.09350114072750833,-0.4065297406887845,0.554,0.032217442325234984,-0.40013038984757116,0.806,alpha1
"('F8', 'T4')",4.826594531004138e-06,-0.37644437956414817,0.37644437956414817,0.4021565035369878,-0.4223152827227061,0.046,0.3181214000036077,-0.4213391713190199,0.1,0.2608935313322446,-0.400193543718443,0.19,0.15197004179846357,-0.40207335067149247,0.342,0.09698892803549557,-0.3967772496130149,0.53,0.02943574682709604,-0.3972029301428986,0.838,beta1
"('T5', 'P3')",1.427107045143714e-05,-0.37587326685439926,0.37587326685439926,0.4145493480612002,-0.4053112101515018,0.024,0.33255911837361574,-0.39266142291263584,0.074,0.27114890166406636,-0.38560270973990934,0.124,0.1645102498118637,-0.3839659881885343,0.282,0.09823064583945725,-0.38123666216109015,0.52,0.03643288214897159,-0.37522683797173245,0.798,gamma
"('Fz', 'O1')",2.7720630367114985e-05,-0.37573971306294063,0.37573971306294063,0.4377860709260679,-0.3851466260529157,0.032,0.3639011587897753,-0.3819875946198064,0.076,0.27647064254306786,-0.3887848190111279,0.13,0.19850589368938645,-0.36364326156668814,0.26,0.1221036175778538,-0.36309354002464017,0.4,0.05471514681552697,-0.3609852158452582,0.712,alpha2
"('Fp2', 'F8')",2.382978245571599e-06,-0.3752923413668271,0.3752923413668271,0.38221887169150925,-0.43875166297502943,0.048,0.2882993794645813,-0.4410823860685855,0.1,0.25232707818536726,-0.41493508641228494,0.188,0.13367971708750492,-0.42135787885905723,0.392,0.07363900311026815,-0.4154688248003093,0.57,0.01971308466691366,-0.41330970592608446,0.892,beta1
"('F7', 'F3')",8.096982341345245e-06,-0.3744812203031526,0.3744812203031526,0.4174526188972647,-0.4219912055425287,0.04,0.3170974966393703,-0.4241800388737076,0.088,0.26122224067320426,-0.40621802278526514,0.172,0.15836287782464908,-0.3932663384666709,0.332,0.09568313675237132,-0.38694006585141677,0.498,0.03269433072514292,-0.3903773457388746,0.814,gamma
"('Fp2', 'Fz')",7.501894482983086e-06,-0.37394121743299863,0.37394121743299863,0.362726654560284,-0.47128098262310986,0.05,0.28175137812038675,-0.45482017399405505,0.126,0.2422054767453703,-0.43322359824931844,0.222,0.15682526584847775,-0.4129886595929034,0.402,0.10563823204614163,-0.40753745332153074,0.526,0.03488306145752984,-0.41777113604819804,0.802,theta
"('O2', 'Cz')",8.216323701670628e-07,0.3737906021551157,0.3737906021551157,0.35045579335209165,0.5161628522103536,0.094,0.28565637131513655,0.47385561747378946,0.158,0.2030431500897181,0.48473313308438243,0.296,0.11400244138820462,0.46297311248457423,0.434,0.0704885610572695,0.44976466132235493,0.642,0.02491104045736878,0.4270076574262695,0.868,beta2
"('T5', 'T6')",7.098507638785433e-05,-0.3733068997378197,0.3733068997378197,0.4422505909856587,-0.42406562345958254,0.062,0.3681855941164708,-0.3923806378828116,0.092,0.31637093971568697,-0.38575157172921526,0.144,0.2134287284925987,-0.3789428370059383,0.286,0.15993965536023436,-0.3536686771754499,0.378,0.06514042687908454,-0.3545670664527439,0.66,alpha2
"('T6', 'O1')",1.3130000101144104e-05,0.3730985192115737,0.3730985192115737,0.3977443559641692,0.458317924260649,0.062,0.31926337340491256,0.43289703292127846,0.112,0.2858464534622862,0.41181819807772935,0.188,0.18829835938970818,0.3983048686432855,0.32,0.1079111308144312,0.40224867699972117,0.51,0.039726304105623465,0.39023554362029644,0.764,alpha1
"('F3', 'C4')",0.00013925868549558848,-0.3709681292968935,0.3709681292968935,0.48318569011631934,-0.34731797806043563,0.018,0.401596533749914,-0.3494377220564849,0.048,0.3449492631797535,-0.33179381359909677,0.076,0.23633963566104607,-0.33492105577779674,0.2,0.1723254592229519,-0.3218233413474552,0.31,0.06671012074662472,-0.3286115722195352,0.598,theta
"('Fz', 'C4')",4.698244151981073e-06,-0.370340641913836,0.370340641913836,0.37381153698231895,-0.4829565516431398,0.084,0.32449466322330117,-0.44464500440717014,0.162,0.25931419433327085,-0.4363097835773433,0.224,0.16108903929813806,-0.426772021054064,0.392,0.10162923028202263,-0.4176434857617007,0.498,0.03577336086381393,-0.40897373008171184,0.776,alpha2
"('Fp1', 'F7')",1.8214324134274538e-05,-0.3700612701412517,0.3700612701412517,0.4202453376446657,-0.4090410678897026,0.02,0.32703592718972435,-0.400832003355728,0.056,0.27152330182353623,-0.38413468129335815,0.11,0.17294873712349587,-0.3737465714543211,0.266,0.1051655939318632,-0.3782205601440884,0.468,0.032016725873000126,-0.3813002568972999,0.822,theta
"('Fp1', 'T5')",1.786705764442664e-05,-0.36992796168634967,0.36992796168634967,0.419368293352633,-0.4351059635066557,0.06,0.34728401974199413,-0.4011082282599213,0.078,0.277857671786758,-0.3933478032399875,0.146,0.20030922719975533,-0.3796521986661505,0.28,0.11827479497500895,-0.3822123101174553,0.444,0.043067051463921195,-0.3727052426505719,0.72,alpha2
"('F8', 'Pz')",8.868772296630361e-06,-0.36895661401823654,0.36895661401823654,0.4085810335010732,-0.4143884517218228,0.05,0.32811873396677355,-0.41027489340197826,0.124,0.2746305386844749,-0.38950941329009936,0.14,0.1806235111887607,-0.37454609240710646,0.306,0.10693196688747858,-0.3880337150824027,0.514,0.034000175904666946,-0.38612972772971177,0.818,alpha2
"('F4', 'O2')",3.028864844373053e-06,-0.3665234274548995,0.3665234274548995,0.3971443065837482,-0.4341980059227766,0.056,0.30509131952559093,-0.43804808207575674,0.12,0.23458442015497016,-0.4389166975122106,0.224,0.15763993428952924,-0.4039151770734612,0.352,0.08793460852589781,-0.40610948928376434,0.566,0.029216058777157983,-0.40722588498152845,0.836,alpha2
"('F4', 'Cz')",1.606781878882145e-05,-0.3660384515868917,0.3660384515868917,0.40799416016796536,-0.4397379368163586,0.058,0.30927859299342225,-0.4524074818407077,0.134,0.2980400474011444,-0.404359883420998,0.182,0.1671444470505502,-0.41890017467922797,0.364,0.1221413479747597,-0.3833111234228494,0.496,0.045075644552774574,-0.3804997603482736,0.764,beta2
"('F3', 'C4')",5.906909529893195e-05,-0.36549422805070847,0.36549422805070847,0.44176263866156645,-0.3844300744927719,0.032,0.36505502940907786,-0.3793459354365088,0.064,0.3241378073719672,-0.34636493403646756,0.106,0.2081314448694068,-0.35878260960666686,0.234,0.13710247721268998,-0.34843007221714745,0.378,0.05000141877363671,-0.3517768998264329,0.704,beta1
"('T3', 'P4')",8.581134911875307e-05,-0.3646162422469611,0.3646162422469611,0.466487165045154,-0.37629513362640704,0.046,0.3985320826044679,-0.3517932472467072,0.072,0.3252630217474212,-0.3564460844591939,0.114,0.22309077185529425,-0.3473754131398177,0.23,0.1505252447159651,-0.34209977914935136,0.36,0.0722874086315946,-0.33412695438292,0.608,alpha2
"('Fp1', 'F3')",2.2053728688278006e-06,-0.3643467006160058,0.3643467006160058,0.3730207280030826,-0.46011455593172157,0.044,0.2856403494629175,-0.44759355784316013,0.1,0.23081837147716636,-0.43492922051867366,0.196,0.1466130650871394,-0.4175502764361966,0.4,0.08591516384165948,-0.4093567227859953,0.548,0.024519950161569368,-0.41225362296348705,0.854,gamma
"('Fp2', 'F3')",7.279236070258012e-06,-0.36242472891559485,0.36242472891559485,0.41313675368370817,-0.42007869894960165,0.044,0.31220312345133755,-0.43329849361177303,0.118,0.27510368874958935,-0.4114669221375583,0.22,0.1706339807145559,-0.39865616945181964,0.346,0.09813585852277901,-0.3955735096121717,0.512,0.03293118194320585,-0.39478268244614745,0.832,beta2
"('F8', 'C3')",0.00023662235357679284,-0.3607262827515786,0.3607262827515786,0.4779897246464577,-0.3607983310046319,0.042,0.42743202283825804,-0.33727405746416633,0.07,0.36889884971532166,-0.3331656259731601,0.134,0.26105600697693854,-0.32691270088472263,0.194,0.1844059519648658,-0.3263583743030097,0.314,0.08651048812026493,-0.32863266198501206,0.542,alpha1
"('F3', 'Pz')",7.912901363297914e-05,-0.3605744050711433,0.3605744050711433,0.45299374655925523,-0.3959034275941631,0.042,0.3529108052209855,-0.39258165059401,0.072,0.3339246250718609,-0.35357079429267063,0.132,0.2271701205315629,-0.35239516950289806,0.228,0.15067845062300436,-0.34799797599555593,0.348,0.061160106289776896,-0.3472825483472154,0.646,beta1
"('O2', 'P3')",2.0296243464777643e-06,0.3604898956293322,0.3604898956293322,0.3595306665738071,0.5075389316058542,0.09,0.2945142609543137,0.4752239219755235,0.188,0.252905833006716,0.443066385074319,0.232,0.13663730152621772,0.45435745759081864,0.456,0.08475546868154309,0.4340242547151475,0.57,0.02554723819720497,0.42479360284486967,0.852,beta2
"('F8', 'P3')",0.00011967578568961517,0.3581239340074525,0.3581239340074525,0.4713444703569992,0.3644393655527647,0.014,0.41633344963519564,0.3347014954135642,0.036,0.3443090184120054,0.33632965923067704,0.082,0.2398693789766048,0.3315376982777366,0.188,0.16261265819352552,0.3310644028986553,0.316,0.07238160870461363,0.33080899786851353,0.624,gamma
"('Fp1', 'T3')",6.953825138531283e-06,-0.35729553709026873,0.35729553709026873,0.3856137793844343,-0.4709474529998017,0.06,0.3205729241696245,-0.4306494360149636,0.112,0.2516422219567651,-0.438324525145675,0.208,0.18293439357001803,-0.40415143297566036,0.368,0.11606458326333155,-0.4064817234280703,0.532,0.03571636671888384,-0.4109092415875563,0.774,delta
"('Fz', 'Cz')",2.443028233005067e-07,-0.3560719752918272,0.3560719752918272,0.3186812349392456,-0.5561599813897646,0.118,0.24585485418131123,-0.5302393798304459,0.24,0.19068500745817168,-0.5083217985740196,0.342,0.1102764586003408,-0.5003808631419069,0.572,0.059175772698290906,-0.4918835264250845,0.716,0.016320975771944964,-0.47465472688763755,0.896,beta1
"('F4', 'C4')",2.834810654034013e-06,-0.35403036921515124,0.35403036921515124,0.3767992793539212,-0.4653747631895803,0.06,0.2970140180062541,-0.454209115046945,0.136,0.2514652039020073,-0.43117041093520925,0.206,0.1512558270676099,-0.42584624315027053,0.412,0.09109575742214496,-0.422815986722055,0.562,0.030903073902049785,-0.41471695973881917,0.828,alpha2
"('Fp2', 'Fz')",7.848746782952108e-05,-0.3537080850311719,0.3537080850311719,0.421847105229708,-0.39602537919123226,0.02,0.35464595447541103,-0.3776917955958986,0.046,0.3047312159762264,-0.3696511599482894,0.106,0.21051281122537285,-0.3623127967028644,0.274,0.14975740222468165,-0.3470036484681082,0.378,0.05486262386017165,-0.36038278911432814,0.678,delta
"('T6', 'P4')",6.269677755492797e-05,-0.3534059947343457,0.3534059947343457,0.420473118138449,-0.42099537580636415,0.03,0.3618865377673256,-0.3884972851592342,0.082,0.294930099470974,-0.3870660418303482,0.13,0.2007079442908313,-0.36638873770073815,0.252,0.12987897630997006,-0.36576579959282135,0.434,0.055070508849513714,-0.35175757926671397,0.682,gamma
"('T3', 'P3')",6.66428333905126e-06,-0.35268958871340617,0.35268958871340617,0.4004960221398674,-0.45312358489125554,0.072,0.31375025304625775,-0.4412288613091349,0.128,0.2672771059029674,-0.41665506059456225,0.182,0.16826302143101757,-0.41236560309524545,0.378,0.09833957264909818,-0.406780478371511,0.528,0.03330490670304588,-0.3948000178694337,0.796,beta2
"('F3', 'T3')",6.595806044420091e-05,-0.3510895248088588,0.3510895248088588,0.4223440033722693,-0.45582259377234935,0.072,0.3504996051947551,-0.4391384562389018,0.138,0.28746714846916205,-0.43804048730553247,0.26,0.20800463422412985,-0.4098236820699106,0.364,0.1464567782083054,-0.4074832086814369,0.452,0.07116542395790931,-0.3704994177778103,0.642,delta
"('T4', 'P4')",2.00571573258394e-05,-0.35010421533607733,0.35010421533607733,0.3887831146289248,-0.47238419663735004,0.06,0.3271523528488802,-0.44486068152504327,0.132,0.29724505554716446,-0.4041230415205571,0.172,0.18186718174826613,-0.41064604645712116,0.332,0.11855583558920862,-0.39696448083316815,0.488,0.05117181196760482,-0.3794667155990353,0.716,beta1
"('F7', 'T6')",6.42542768010792e-06,-0.3497847238052386,0.3497847238052386,0.4130796879753704,-0.43128314227068465,0.056,0.3394763189139793,-0.4158245151245525,0.094,0.24448106791212143,-0.42789522019836856,0.184,0.16622923026627565,-0.4077717228460206,0.38,0.09591969781477849,-0.4019734938129145,0.526,0.03629342994806114,-0.3873627563792615,0.806,beta1
"('F4', 'Cz')",6.257045607467739e-06,-0.3490914191590323,0.3490914191590323,0.4085881411400727,-0.4479078246894002,0.06,0.32320692903080844,-0.43410941939096587,0.13,0.27232985164946655,-0.41599418002653704,0.2,0.16248934371681784,-0.41462714572889225,0.38,0.10000151906739987,-0.4038822825347086,0.536,0.03510293238364646,-0.40345951943909475,0.81,alpha1
"('F7', 'Cz')",1.434001765303117e-05,-0.3488269533918351,0.3488269533918351,0.3978475484858083,-0.4348106232298489,0.046,0.3293532509482741,-0.409184874342659,0.1,0.29707438358899835,-0.3807310256415184,0.146,0.18566650630330708,-0.3816135542630339,0.294,0.1036844922777502,-0.39446291869936345,0.508,0.03486373361642052,-0.391636061524172,0.786,beta1
"('O2', 'C3')",0.00017621469123312982,0.348678788697942,0.348678788697942,0.474968863317007,0.3804197099855322,0.036,0.41246735892583414,0.3654089415560051,0.074,0.3173230701057773,0.3837232526104375,0.13,0.24480500359603577,0.36372852682758644,0.246,0.16391341091307643,0.3556867778866539,0.352,0.09480174265230888,0.32289323772443684,0.546,beta1
"('O1', 'C3')",0.00027889184830489364,0.34782906209990005,0.34782906209990005,0.49352964285293005,0.3532129120190325,0.022,0.4112241330187518,0.3411479918952084,0.038,0.3452312655142608,0.3393667403802551,0.078,0.260793748118227,0.3249357462886359,0.196,0.1664834922711997,0.32944628666944353,0.32,0.0836202813984036,0.3228802721865638,0.544,alpha1
"('O1', 'Cz')",0.00013193363971469778,0.3477370413109777,0.3477370413109777,0.4921075031605691,0.35300079163596126,0.03,0.39952198357539964,0.3462072857954796,0.064,0.35903494727339985,0.3415669537208753,0.096,0.24035739446835155,0.3331927366304412,0.19,0.16543899300056408,0.33225230332615574,0.32,0.07183153702605344,0.32869853958919426,0.624,beta2
"('Fp2', 'Cz')",1.2691099413278464e-05,-0.3476505913177092,0.3476505913177092,0.39916710989818505,-0.43409205195981065,0.042,0.32797269209628255,-0.40609701362845047,0.106,0.28121052735895974,-0.38982560562164664,0.172,0.1740698970639181,-0.3970450612169781,0.352,0.11667136217482633,-0.3774886811440264,0.484,0.03315221603971553,-0.39661802602711627,0.816,delta
"('Fp2', 'C3')",1.5079199902497547e-05,-0.3473866914905777,0.3473866914905777,0.41533250274545863,-0.4186145014802399,0.028,0.3356853730422801,-0.40866435301262516,0.104,0.2798958932632183,-0.3954960614800745,0.154,0.1794337742136896,-0.38182849508739575,0.292,0.11451114770434008,-0.37356981612508533,0.462,0.04181742119151511,-0.3878874384838891,0.778,theta
"('Fp1', 'F4')",2.280756924498064e-05,-0.34711020607374593,0.34711020607374593,0.4300432831512743,-0.38376991778088965,0.02,0.3641242405919688,-0.3627587958839421,0.05,0.2950231193766134,-0.3612090485112111,0.084,0.1792172875233654,-0.36824196825400096,0.26,0.11548345263675816,-0.35885808408070147,0.452,0.03764898474533761,-0.36304947170802465,0.78,delta
"('T4', 'Cz')",8.918342372157951e-05,-0.3453427765235399,0.3453427765235399,0.4411025524975901,-0.4034455654007833,0.042,0.3733132699711381,-0.3854801579022314,0.12,0.3368550783785399,-0.3475087340335882,0.108,0.21820889598260546,-0.359479255847837,0.246,0.1536458323081082,-0.3466480193980797,0.362,0.07103274581998788,-0.33962582725399,0.606,beta2
"('O1', 'C4')",0.00011283250332214325,0.34438164468085997,0.34438164468085997,0.4748769793975594,0.36211688248280716,0.024,0.3926966444192186,0.3554452885553885,0.06,0.3459153365341492,0.34685276986374264,0.094,0.2276259235895287,0.34621952442222115,0.222,0.1682184662194429,0.3317949470696654,0.34,0.0657915724834111,0.3322354080532559,0.624,beta2
"('F4', 'C4')",6.877745028809047e-05,-0.3433829990647788,0.3433829990647788,0.46815437080648087,-0.37374990958804627,0.032,0.38230256400417256,-0.3653132567705767,0.07,0.3347056098180318,-0.3457153183727082,0.102,0.21259647568495604,-0.36261872039114496,0.28,0.1358960155449468,-0.3520205525271085,0.382,0.059483624968177766,-0.34539043436599465,0.676,alpha1
"('T4', 'Cz')",3.0232488388026436e-05,-0.34257831659485394,0.34257831659485394,0.44414030083669837,-0.39183671687738736,0.044,0.3478499482236988,-0.3864126563081199,0.078,0.31386737773334983,-0.3595789802867662,0.11,0.1889121329673947,-0.37133225903979544,0.276,0.12290325106123795,-0.3598096465605114,0.404,0.05249714770562755,-0.35940856595678455,0.714,beta1
"('Fp2', 'C3')",4.808067751966456e-05,-0.3423363053158351,0.3423363053158351,0.43096757447846756,-0.392778881537791,0.038,0.35900818858473527,-0.3878372079395952,0.076,0.30326181429759397,-0.38679548998016683,0.174,0.21840331274165456,-0.36272243745387683,0.276,0.12793131112366707,-0.37723742531456284,0.478,0.06589947607701105,-0.35651129482546373,0.65,alpha2
"('T3', 'C3')",4.742846322256996e-05,-0.34205053747429465,0.34205053747429465,0.4451461439270325,-0.4114214284428416,0.07,0.37714292446665937,-0.39688718378444765,0.112,0.31705733897185034,-0.3783974583569399,0.154,0.20957671785474724,-0.3684324919710778,0.268,0.1368527141472021,-0.37602946519240943,0.454,0.05572186538422237,-0.36267032805693594,0.68,beta1
"('Fz', 'C3')",0.0003651320691881811,-0.3420006517796003,0.3420006517796003,0.4769632052009818,-0.35444283224770406,0.016,0.414059738736209,-0.3292884820894918,0.038,0.3602632718788039,-0.3288724467647182,0.066,0.24888075805313156,-0.3225251618334453,0.152,0.1934315328903722,-0.30825528749418096,0.242,0.08625279975459885,-0.31140220517690814,0.53,delta
"('Fp2', 'T4')",0.0003568352445651895,-0.341570079347656,0.341570079347656,0.48955002527183356,-0.3461106138837845,0.03,0.45990668867865897,-0.3043628106003261,0.056,0.3823062787907904,-0.30811286820440353,0.074,0.27849003067877287,-0.31270229933634236,0.184,0.18343867983803885,-0.3168023336926215,0.276,0.095014682990074,-0.31402055359949144,0.49,alpha2
"('F3', 'F8')",0.00030521441714560923,-0.34133400268331954,0.34133400268331954,0.5008563017591778,-0.3369315081461985,0.028,0.39972482921600294,-0.34681875255731526,0.076,0.3905104090542986,-0.3082262365749076,0.09,0.2648197725736912,-0.3164738885161307,0.182,0.18667989894210768,-0.31569914651841574,0.276,0.08750228681937958,-0.31438546022744734,0.546,beta1
"('T3', 'C3')",0.00028592851036781053,-0.34129136621213785,0.34129136621213785,0.46293345345935644,-0.3888161930962256,0.028,0.4223903578658276,-0.3576269308315102,0.066,0.3320753660090642,-0.3673222596794222,0.12,0.24244422441677582,-0.3532837321416246,0.26,0.17489885062154786,-0.34408600812276235,0.348,0.08919926166026448,-0.33275265795130304,0.56,alpha1
"('Fz', 'T3')",0.00015522670934598078,-0.3375803876428599,0.3375803876428599,0.46478002875587293,-0.36749634508745577,0.018,0.39477463703096893,-0.355076444918223,0.042,0.3241824628699241,-0.35521319277292746,0.076,0.23849142695945674,-0.33965121224985956,0.202,0.1583424805565314,-0.33968945798105654,0.348,0.07131528552593715,-0.32595016310159447,0.628,delta
"('O1', 'O2')",7.614321519326117e-05,0.3372461065685914,0.3372461065685914,0.4393878500070273,0.40265210367016757,0.032,0.3994282404163611,0.35735169334935185,0.058,0.32065028393965106,0.3701370077773048,0.122,0.21508561302244583,0.36556257642786594,0.254,0.13499565249378706,0.3616685328766775,0.41,0.060178706482897935,0.34992932390008036,0.664,beta1
"('Fz', 'C3')",5.483053190659033e-06,-0.33632992683785246,0.33632992683785246,0.3849674801584413,-0.44429593702103054,0.03,0.2907018838128045,-0.4474514590297404,0.12,0.25942169475713706,-0.41507378771768455,0.18,0.1553138008510234,-0.40995747357165113,0.372,0.09784560598229795,-0.40161617555335477,0.552,0.03180535972434842,-0.40559875356035335,0.826,beta1
"('Fp1', 'T3')",9.603715740582194e-05,-0.3362966968029212,0.3362966968029212,0.43442041940641046,-0.39216947534661684,0.038,0.3890299644704812,-0.3664031869445593,0.078,0.33885423278898374,-0.3471305890208288,0.12,0.24417245603277574,-0.3477923029361757,0.24,0.15838260995833253,-0.3449844512254147,0.358,0.07120757237710373,-0.3416279804693833,0.606,beta1
"('F8', 'C4')",0.0004940691124885548,-0.33554213622877405,0.33554213622877405,0.4708193201015737,-0.37460297767867706,0.036,0.39155190193211226,-0.37073928785219434,0.094,0.3767021616275216,-0.3374209975666115,0.126,0.26911370610991164,-0.3387789622349016,0.218,0.19566827061769293,-0.3306528080141927,0.326,0.10162626292140899,-0.31894282988679706,0.524,beta1
"('O2', 'P4')",0.0002720458654271016,-0.3354784793796966,0.3354784793796966,0.4843745970116151,-0.3615617975673694,0.014,0.3900123202015692,-0.35733358301543716,0.05,0.3198432278776405,-0.36124989358498977,0.076,0.23684622632414776,-0.3277613554869638,0.124,0.1475886462008805,-0.33544997798737203,0.328,0.07175567346627354,-0.32232956739500435,0.572,gamma
"('F8', 'P3')",0.00013709098053342226,-0.33503181971397955,0.33503181971397955,0.4794451285052022,-0.3397867203554928,0.02,0.4181929496275352,-0.33139879467169636,0.056,0.3435933570884443,-0.3401455788950055,0.108,0.25871077781208257,-0.3193358273088347,0.188,0.1685372514094726,-0.3275564051319117,0.346,0.07023710775679191,-0.32990346996567466,0.616,alpha2
"('T4', 'T6')",0.00022945232699927705,-0.33454805842161844,0.33454805842161844,0.46960282911751455,-0.36367181768413553,0.012,0.4145969464831071,-0.33813281349822655,0.058,0.3504534148289896,-0.3360870792002327,0.078,0.2496789307547887,-0.32965785102019135,0.186,0.1750562290647693,-0.31992023269152026,0.302,0.08452817237536339,-0.3157868123610655,0.546,beta1
"('T4', 'T5')",0.0002543530151325283,-0.3342960894304632,0.3342960894304632,0.4976820525428246,-0.3362913475851689,0.014,0.41577825438591837,-0.33087448380784384,0.056,0.36162684869702466,-0.32269623577472106,0.082,0.2525599989335459,-0.32490961939832586,0.186,0.19029800742145744,-0.31575473016959077,0.284,0.08999272653327203,-0.3160381242114181,0.534,alpha2
"('Fp1', 'C4')",1.9960069427453948e-05,-0.33316163480385574,0.33316163480385574,0.4175739507490195,-0.3986419239794109,0.024,0.3680973327132084,-0.3683323126615567,0.064,0.28586194912979496,-0.3683981356088773,0.12,0.175884625465042,-0.3720350167367142,0.25,0.11921883467775923,-0.3608756437835269,0.454,0.03757541987996129,-0.3721913984362019,0.804,alpha1
"('T6', 'Pz')",0.00020516620490683912,0.3327645077686178,0.3327645077686178,0.5023858279102478,0.3383088321266899,0.02,0.41553236491679774,0.33491350574056516,0.052,0.33321820570031807,0.35188635155091913,0.13,0.25875469315993005,0.32606063448577843,0.194,0.16135559545966402,0.3307520322000525,0.33,0.0756558732887307,0.3246464231608936,0.586,beta1
"('Fp2', 'O1')",9.806927117142704e-05,0.3322708790395422,0.3322708790395422,0.47924444779467323,0.3630180865775967,0.028,0.3779283209865841,0.3735823859768697,0.058,0.31485628510023633,0.37045716844073556,0.118,0.2423727799864594,0.3457648841637554,0.208,0.1525218787053398,0.35373451867304506,0.368,0.07330285608357871,0.3412586638878966,0.638,gamma
"('F7', 'F3')",6.595806044420091e-05,-0.33130339869069236,0.33130339869069236,0.46200359431932825,-0.37512547410435443,0.018,0.382120583833305,-0.3535259943485085,0.06,0.3207498118240084,-0.35543515623609745,0.092,0.20710305170136373,-0.35322579021592726,0.216,0.1400649696677031,-0.3491793814553344,0.36,0.05294617263780047,-0.35159118346410667,0.68,delta
"('Fp2', 'F4')",4.029811687729215e-06,-0.3311111118579994,0.3311111118579994,0.35165250884000854,-0.4968259474287601,0.07,0.28668960977263397,-0.4641040463836857,0.15,0.2324756358172343,-0.45633581248539257,0.246,0.1480424253796266,-0.4277275711040541,0.388,0.09738787218308072,-0.41289795069354807,0.532,0.029049602112385647,-0.41615861272897764,0.822,theta
"('T4', 'Pz')",0.0008839812557063276,-0.3294672590662107,0.3294672590662107,0.4812207972760365,-0.3730208430062971,0.04,0.4352361010909574,-0.34353165645868033,0.074,0.4092572370758554,-0.30598623014624365,0.066,0.2949073284778232,-0.31291593173282783,0.166,0.21992373151969435,-0.3100621375663345,0.304,0.12939558751672275,-0.29220338419848413,0.422,beta2
"('Fp2', 'T4')",7.735688166349041e-05,-0.3294608781907799,0.3294608781907799,0.4606825484870603,-0.36539469973145466,0.028,0.41149000770106753,-0.3471477723300148,0.058,0.3177735701868687,-0.34886419496743554,0.082,0.2071434486569779,-0.3505640336552432,0.238,0.15138865908537272,-0.338427619644117,0.352,0.053931882875837,-0.3474792144751907,0.676,alpha1
"('T3', 'T5')",3.70009940017655e-05,-0.32924351694442416,0.32924351694442416,0.4244600608147956,-0.4201437054643243,0.052,0.3583870412738619,-0.40598323954358373,0.114,0.30396208958278814,-0.39274690369018744,0.162,0.20660864415168714,-0.3801205283136557,0.292,0.13202801312074203,-0.37395767383811773,0.446,0.05859747480914159,-0.36489100732063623,0.668,beta2
"('F4', 'T4')",0.000171159024260139,-0.3289201089211119,0.3289201089211119,0.5026063689131884,-0.3315400919098161,0.018,0.39425198799196415,-0.3484619666659555,0.042,0.34039169957804133,-0.34279962049116003,0.102,0.2237817572134682,-0.33714037471184016,0.18,0.16644006244215515,-0.32599897805043204,0.29,0.07510498091094828,-0.3212479664494184,0.594,delta
"('F3', 'C3')",0.00015382876770837629,-0.32826088499219414,0.32826088499219414,0.4563212038126737,-0.3587315029360281,0.016,0.3897559033293428,-0.34103533873995445,0.046,0.35377323802561467,-0.3232107400432782,0.082,0.2384000560425337,-0.33001377959464706,0.174,0.1495151204129133,-0.3414930219643945,0.354,0.07240595146566234,-0.32920610744160245,0.62,alpha1
"('T6', 'P4')",0.0002251423814120075,-0.32776617082013443,0.32776617082013443,0.44673144056864883,-0.3859688602224272,0.024,0.38775842269154737,-0.36137748177626106,0.044,0.3278878285094282,-0.356937095722688,0.076,0.22461303537238514,-0.3518275333739986,0.2,0.15330198991910388,-0.3453242447521487,0.308,0.07135132788554428,-0.3253831828597362,0.554,beta2
"('Fz', 'T3')",0.0002543530151325283,-0.32669525179746167,0.32669525179746167,0.4802177927036345,-0.35946798754648535,0.034,0.42076370727430246,-0.33239627910370106,0.058,0.38584130443800896,-0.31389872828363635,0.082,0.264479111964411,-0.32356653924932016,0.182,0.19044614174995234,-0.32032886526013477,0.304,0.08720147918419352,-0.31195480406528164,0.544,beta1
"('F3', 'T3')",0.0002900389360125212,-0.32608002404263764,0.32608002404263764,0.46853643258407285,-0.39413713162002556,0.052,0.41801390721557724,-0.3619483882686184,0.082,0.34422619103397556,-0.3672049625767815,0.142,0.2629292347537034,-0.35197938441540394,0.238,0.17815099418572153,-0.35377065556973863,0.358,0.09934347543176697,-0.3309489572644333,0.556,alpha1
"('F8', 'Cz')",3.113096131067265e-05,-0.3244809333016229,0.3244809333016229,0.43189098704767026,-0.40344798157429135,0.036,0.36318504769991716,-0.39700581773076116,0.114,0.30492156478651283,-0.3820225759273045,0.166,0.1980994726655334,-0.3807684713371905,0.294,0.12789282260146667,-0.37388202364890966,0.458,0.04990204916537671,-0.37358205291691093,0.732,alpha1
"('T6', 'C4')",0.0005113271764850349,-0.32360909193120724,0.32360909193120724,0.4888613830163652,-0.3530036120977541,0.022,0.4263139102094836,-0.3347382392074553,0.066,0.35520428735290693,-0.3340424228058087,0.084,0.2763125102789491,-0.31460806496663596,0.162,0.1978887722094917,-0.32115454811985195,0.286,0.10580386973703279,-0.30554285538981263,0.488,gamma
"('F4', 'C3')",4.799465072829863e-05,-0.3235440519765265,0.3235440519765265,0.455521947661888,-0.3915742936966871,0.038,0.38213568656592295,-0.37813304753925275,0.088,0.33227111256194014,-0.36186601670987295,0.132,0.21260775951880162,-0.3601188763963126,0.256,0.13804916819933807,-0.35834421939962197,0.418,0.06026757032644278,-0.3544140242342185,0.674,alpha1
"('T6', 'O2')",0.00042224776545564087,-0.3227478759467982,0.3227478759467982,0.4724227139902526,-0.38624125091458245,0.03,0.39335825231296884,-0.37295786797386155,0.064,0.34690358358960444,-0.36264910126542155,0.11,0.2650387273529353,-0.3398430421896664,0.212,0.19569477632663232,-0.33123690488011376,0.348,0.1022849430377755,-0.3196126844578368,0.516,gamma
"('F4', 'C3')",0.0003568352445651895,-0.3221915028974555,0.3221915028974555,0.5023895519814874,-0.32202772177382516,0.014,0.41579484881206513,-0.33434404038789006,0.052,0.38743621041287934,-0.31111046861654684,0.078,0.26924353616931285,-0.31111909383505315,0.168,0.19444353867840314,-0.3106874037164183,0.274,0.09322217365975484,-0.30993593999432817,0.532,theta
"('Fz', 'T3')",0.0009551334384843797,-0.32140760608840113,0.32140760608840113,0.5068857498674462,-0.334840627326203,0.036,0.45842537337675565,-0.315583231575311,0.052,0.409088860032983,-0.30451239398549773,0.064,0.31741512239730263,-0.3046467474575875,0.178,0.23863997699553843,-0.298078532968253,0.25,0.12680525067161602,-0.29529670911201833,0.426,theta
"('Fp1', 'C4')",0.000181504382016436,-0.32125655443008216,0.32125655443008216,0.4619156467227989,-0.37287843306467694,0.026,0.4139747405009895,-0.34884824716980717,0.072,0.3376452000224411,-0.3444414060344347,0.12,0.23907558518807082,-0.34209786596303116,0.204,0.189680763966321,-0.3380509475717241,0.36,0.07204645466605572,-0.335840563730023,0.592,delta
"('T4', 'T6')",7.457016627513198e-05,-0.3199671155606084,0.3199671155606084,0.4432209553992387,-0.37810578638418973,0.024,0.4020163318229236,-0.3478026147329865,0.064,0.31228954272929615,-0.35227735732605087,0.086,0.22085165540576657,-0.347432391222637,0.24,0.1455813757677965,-0.3471254206970983,0.384,0.06657890547403209,-0.3374229401988055,0.648,beta2
"('F3', 'Pz')",0.00015382876770837629,-0.3196101497809124,0.3196101497809124,0.47342222237407566,-0.3607247855406792,0.032,0.4061163985671983,-0.3515358235807981,0.068,0.33473761204975633,-0.3516742097960357,0.122,0.23943606906816095,-0.3401565428652702,0.212,0.16436626595800727,-0.33697101691185266,0.352,0.08051951648537062,-0.3236393722807312,0.566,alpha2
"('F3', 'Fz')",0.0001718668219517216,-0.318628367816314,0.318628367816314,0.46040211701882433,-0.37138409469447914,0.026,0.4225666064626245,-0.33777411132897606,0.06,0.35589132341735313,-0.33403506780121406,0.082,0.24508921375572415,-0.3337553656015159,0.202,0.17017098356993474,-0.32632985789709223,0.306,0.0771349822093998,-0.33159400225306784,0.59,delta
"('T6', 'O1')",0.00022945232699927705,-0.3184210660672675,0.3184210660672675,0.4743958354762881,-0.37366439059909984,0.03,0.39635279068571067,-0.36815832578434704,0.062,0.34073241450793373,-0.36354342698810405,0.132,0.23055127081639532,-0.3494085171490152,0.222,0.18659517600792336,-0.33349518362716774,0.326,0.0836731136087337,-0.3317984334499423,0.562,alpha2
"('T4', 'O2')",6.595806044420091e-05,-0.3182405171740714,0.3182405171740714,0.4150441824335933,-0.4651745691969834,0.08,0.3742544802605505,-0.418925519125738,0.12,0.3272505447645948,-0.3955902621922069,0.172,0.22749564731179692,-0.38336373550145164,0.294,0.15588681556781933,-0.3745920256537461,0.41,0.06743074033738154,-0.3622220049544209,0.638,beta2
"('Fp1', 'Fp2')",0.0002589377986075584,-0.3180762942137158,0.3180762942137158,0.43275940097220933,-0.4376553242008346,0.054,0.36371646377577915,-0.4209977311593479,0.128,0.33983131620515855,-0.381655082983737,0.184,0.24614587172970764,-0.3876794293986548,0.338,0.1927497504532708,-0.3737741319629796,0.438,0.09795611245815618,-0.36444049303598347,0.598,alpha1
"('Fp2', 'F8')",0.0004769447581499828,-0.31771843462955707,0.31771843462955707,0.519243642446543,-0.3086528516481612,0.01,0.4393546245130741,-0.3180723264989518,0.026,0.3977101175095047,-0.29110235282562585,0.058,0.2970585635897103,-0.29054073026156546,0.126,0.19973325302367756,-0.29844862625154633,0.208,0.0914879929351417,-0.3046809683514256,0.514,gamma
"('T3', 'O2')",1.1334877533926008e-05,-0.31706725720324064,0.31706725720324064,0.4340303466020789,-0.3956558733689799,0.058,0.35661295176466884,-0.3823368801829623,0.09,0.28661137762911754,-0.386125546981299,0.15,0.17330190920224187,-0.38349603822249556,0.292,0.1134563975178243,-0.3787434490741088,0.46,0.03956366117269793,-0.38149773870908943,0.744,alpha2
"('C3', 'Pz')",0.00012799224966648234,-0.3169355316287208,0.3169355316287208,0.46916437983788917,-0.3601008773904253,0.016,0.38059485371272955,-0.3553711146523493,0.042,0.3311402159298748,-0.33154188550066926,0.072,0.20913605417449235,-0.34588886486557807,0.194,0.15805145848026772,-0.32653289662989626,0.3,0.06276390254285502,-0.3301889541736851,0.642,beta1
"('O2', 'Pz')",0.00014653130734839897,0.3165760671930914,0.3165760671930914,0.4674324754305555,0.37742816946424096,0.038,0.409362672880359,0.3633300529998379,0.074,0.34642530997333254,0.3446721725175723,0.096,0.22176376147740948,0.36103803007308605,0.224,0.18073211749305232,0.3346017299291197,0.346,0.07879617431347602,0.3262801541323156,0.578,beta2
"('F8', 'C3')",0.000425211166052465,-0.31457629616259675,0.31457629616259675,0.5052336440824139,-0.33832441269219454,0.04,0.43394424232253465,-0.32808396915513055,0.062,0.38130952701426846,-0.32454617317077417,0.108,0.29788198113750625,-0.31019428881080774,0.19,0.2067811483559775,-0.31643371858480884,0.312,0.10757689652892206,-0.311997257019093,0.498,alpha2
"('F3', 'F4')",0.000253170642321977,-0.3139948920705084,0.3139948920705084,0.47942747593488,-0.3598713979974851,0.024,0.40208530868061365,-0.3616274036887066,0.07,0.3848777695921507,-0.3230804243980115,0.09,0.2704980003305189,-0.321961096402153,0.184,0.17779086607682587,-0.328117028599605,0.314,0.08705980091638932,-0.32515125770828507,0.564,theta
"('F3', 'Pz')",0.0014843793250915501,-0.3117551693338094,0.3117551693338094,0.5258861497926552,-0.31085402777214993,0.016,0.44694579835650844,-0.3064507461102845,0.044,0.431472556051247,-0.2771511310561321,0.058,0.2998708721031393,-0.29408787580376156,0.132,0.2410225808791045,-0.2813288381371743,0.226,0.13521132245366016,-0.2755985628390897,0.388,beta2
"('F8', 'Cz')",6.269677755492797e-05,-0.31129199249377754,0.31129199249377754,0.4323053692044471,-0.4211116000280635,0.072,0.3568599471255639,-0.4086961416023797,0.124,0.33683983254431776,-0.3642705008983171,0.158,0.20929476946204906,-0.37314099440808735,0.272,0.14486624668187773,-0.3671116340899129,0.41,0.05988836991554278,-0.3580542909608953,0.66,beta1
"('Fp1', 'Cz')",9.449037468402675e-05,-0.31104113211616824,0.31104113211616824,0.4506796655893979,-0.37400255964540635,0.018,0.380519407003978,-0.35320521223459966,0.062,0.33328123751293476,-0.3432708952151952,0.082,0.20947547213734752,-0.34627748674764286,0.208,0.15367658760210764,-0.32849970069846307,0.338,0.05303905459676123,-0.3484348916565595,0.672,theta
"('T6', 'Cz')",0.0021331385359535096,0.3109079411778485,0.3109079411778485,0.5611107770953835,0.28757892988378897,0.006,0.4856360838898538,0.2988235237429748,0.036,0.4113842016202018,0.2976349235367342,0.066,0.3447883714775091,0.2747574668792967,0.102,0.2523515560679793,0.28578315713494173,0.222,0.16081116975806992,0.26457382659967627,0.344,beta1
"('O1', 'Pz')",0.00040062795423051467,0.3104153781475032,0.3104153781475032,0.5114582301034375,0.3404197977985657,0.04,0.41301727319858983,0.35565118341614915,0.078,0.36255336884970785,0.34427368161561883,0.106,0.29001438804928587,0.3214194160170815,0.182,0.1909300008528892,0.3240692649631083,0.286,0.09966002363671542,0.31500773913963925,0.534,alpha1
"('Fp1', 'C4')",0.0003475314293822933,-0.30981902989342747,0.30981902989342747,0.48090001579043606,-0.3431702944661764,0.024,0.44627620268768214,-0.31093203546429876,0.052,0.3799102467548378,-0.3214886558650621,0.082,0.2777209979187603,-0.31204376098536746,0.176,0.19734883797748154,-0.30692889328162926,0.278,0.09654665198685361,-0.3103394419460021,0.534,alpha2
"('Fp2', 'F8')",4.8538371365715816e-05,-0.30878557677828217,0.30878557677828217,0.4302479334963953,-0.41320720536653066,0.044,0.3366101327832632,-0.4259220536141179,0.1,0.30443038196720157,-0.3968781575864157,0.182,0.19771526580258425,-0.3904418938664487,0.324,0.14215036458592636,-0.3805631475197169,0.41,0.05095670504152231,-0.36846718844574444,0.68,alpha1
"('F4', 'C3')",0.000744628846040492,-0.3080302303237426,0.3080302303237426,0.5136857440772302,-0.29129350634044493,0.008,0.4450027558271339,-0.2957365578422086,0.01,0.41327654354912463,-0.2679379493267676,0.024,0.27984017083784113,-0.2913628655745534,0.114,0.21487704933035495,-0.2837990026593963,0.198,0.10041850463740501,-0.29164079647844116,0.484,delta
"('O1', 'P4')",6.967890606225813e-05,0.3080233940279417,0.3080233940279417,0.442690053899231,0.4148409646272269,0.064,0.36559784097474934,0.40486911751833865,0.11,0.30305363077085073,0.40133686030436255,0.19,0.22924691237012287,0.36495080762925886,0.238,0.14359775425803303,0.3688360410666857,0.392,0.06173573973041589,0.3620337203891795,0.646,alpha1
"('O1', 'P3')",0.0005364550966213575,-0.30778701908324146,0.30778701908324146,0.4977980493709747,-0.3267018230616017,0.004,0.4357166984657855,-0.31213128937885937,0.012,0.35402498870351734,-0.3233554101020364,0.036,0.2764508101866896,-0.3121231604196958,0.144,0.18922081639811764,-0.3108513266932254,0.27,0.10002075081618542,-0.30175106334608404,0.504,beta2
"('O2', 'P4')",0.00027552604695838255,-0.3075619386953404,0.3075619386953404,0.4947180046278199,-0.33772505654602103,0.012,0.40637533121979325,-0.33494714857066876,0.038,0.3220680133566234,-0.3462242908112713,0.064,0.2582270789999713,-0.31346825697141156,0.158,0.1567704050765544,-0.3293703635565412,0.302,0.06909719434908512,-0.32239958967934146,0.578,beta2
"('Cz', 'C4')",0.0013836697443105111,-0.3071714791315474,0.3071714791315474,0.4568261148863969,-0.39393708306287284,0.042,0.3971664589956414,-0.39546666375255396,0.106,0.35113519794680587,-0.358919150484526,0.14,0.2874054399233251,-0.3489123989819289,0.264,0.2509563296776001,-0.3327080357034312,0.376,0.1351875060146313,-0.3336478898324351,0.528,beta1
"('F3', 'C4')",0.000186447065886453,-0.30688597547951507,0.30688597547951507,0.4674010375219766,-0.35468298702579487,0.016,0.4042120550196818,-0.33672291266119514,0.038,0.3476937146614121,-0.32574134335048555,0.078,0.23115866250238265,-0.3321819475159481,0.174,0.16489629996868752,-0.32735666665671664,0.288,0.06629280756527939,-0.3279621391760851,0.618,alpha1
"('Fp1', 'Fp2')",0.0001246569533409481,-0.3062777719054897,0.3062777719054897,0.4782239054403465,-0.3659717859172666,0.034,0.3972849069852432,-0.3639801370166369,0.08,0.3618758746437012,-0.33115608546702613,0.11,0.23689842657134416,-0.3436441475132157,0.226,0.15028404703342085,-0.3343126732439507,0.334,0.06391172213671296,-0.34330271478166835,0.614,beta1
"('F3', 'O1')",0.0002692112542986954,-0.30600599822089775,0.30600599822089775,0.49370487147380326,-0.3394240238789266,0.02,0.4242042255729505,-0.3341911821249768,0.046,0.3636695569195699,-0.32247117711680817,0.096,0.27390599561547035,-0.3127778684223315,0.186,0.19096049482322683,-0.3128508792359426,0.28,0.09481987872843947,-0.3094928212683221,0.542,alpha2
"('T5', 'O1')",0.0003616863519175772,-0.3049877544668058,0.3049877544668058,0.4785510587706335,-0.38149037200110086,0.032,0.4208433787232537,-0.35468395977694167,0.056,0.3619181739150178,-0.35243299765424013,0.12,0.2471034843065749,-0.3475038417447732,0.23,0.19055235864590175,-0.3329958613340486,0.308,0.09381611484873327,-0.31831865361804074,0.506,beta1
"('T6', 'Cz')",8.979017833540044e-05,0.3049193644357816,0.3049193644357816,0.44722028325943003,0.39551875184500584,0.038,0.3678601858598453,0.3879527230426334,0.082,0.33159114559717673,0.36769599747211323,0.124,0.2314532776529091,0.35909990372555967,0.254,0.14717764923378762,0.35812348483973966,0.366,0.07259499719763964,0.34580724752551567,0.618,alpha1
"('Fp2', 'T3')",0.0005814914229452533,-0.303565142906303,0.303565142906303,0.503111055415735,-0.3316065336221907,0.02,0.4470949894289202,-0.3104804742489093,0.052,0.38299735161085235,-0.3181721297253657,0.082,0.2979852560394399,-0.30452887534692824,0.168,0.20696280294665315,-0.3056509370534382,0.286,0.11408843173164891,-0.2984656853437293,0.462,alpha2
"('T5', 'P3')",0.0015870973585154868,-0.30339105020561286,0.30339105020561286,0.5395414944219393,-0.3074378748807375,0.016,0.45878849054815024,-0.3129547485153394,0.044,0.4274780622316235,-0.29459399824465593,0.07,0.30858092996714553,-0.2991877616938958,0.152,0.23662012038094807,-0.29298239942875187,0.232,0.15591064616314096,-0.2798555319987686,0.39,alpha2
"('T6', 'P4')",0.002122626830002262,-0.30275886433098503,0.30275886433098503,0.5350032384035097,-0.32810549975848013,0.026,0.4583892671184898,-0.3244166243985778,0.058,0.4169196339545613,-0.30591483445443834,0.07,0.32787071386864763,-0.2938306011787664,0.154,0.25344397370766386,-0.2841574735593301,0.208,0.15404202570566586,-0.2750739782556433,0.362,alpha2
"('T4', 'T6')",7.765098013186348e-05,-0.30251473320541755,0.30251473320541755,0.43022946506842863,-0.39704682139459224,0.03,0.3989934569220534,-0.34860898945791485,0.054,0.31058258888591295,-0.35694903104176867,0.1,0.21211166069085396,-0.35678566889588637,0.258,0.14090152742376708,-0.3540189595185859,0.382,0.06637654236667119,-0.33518799240999064,0.634,gamma
"('F7', 'T5')",0.0012928851613351854,-0.3018276422402852,0.3018276422402852,0.5276493257397766,-0.31239357590947203,0.014,0.4629909396699925,-0.3008350119101813,0.03,0.41817306707506563,-0.29452961838357056,0.064,0.317369364344892,-0.28904720214317325,0.142,0.23373497684799444,-0.28872822396342496,0.212,0.12085247423474006,-0.2877125776931902,0.428,delta
"('F8', 'T4')",0.0003735955432851067,-0.3004971709616703,0.3004971709616703,0.48470860592216514,-0.35265864693053345,0.028,0.4412614976650123,-0.3164269326952019,0.046,0.38901781655881496,-0.30959929873828224,0.088,0.2709284337087684,-0.3157781210885939,0.18,0.18724209742541575,-0.31184838965251044,0.288,0.09639727945408476,-0.31181119764899573,0.496,gamma
"('F3', 'Cz')",0.00023750692282430185,-0.30044441673321187,0.30044441673321187,0.45192834531013093,-0.3577140865816157,0.012,0.39377777013367576,-0.3432052148859089,0.05,0.3277186105342424,-0.3417987173304509,0.088,0.22351605132624944,-0.3425948264662187,0.198,0.14967684531633102,-0.33859677324490794,0.302,0.05912053036711567,-0.33471847511789965,0.616,delta
"('F3', 'Pz')",0.00025226984184017993,-0.29974333002173564,0.29974333002173564,0.5129327533217743,-0.3224916337896713,0.022,0.42009292461095943,-0.3297074669702603,0.042,0.3548270038435243,-0.324424542862551,0.096,0.24814749340415465,-0.32161269718349195,0.168,0.1781350860783237,-0.3224793364003246,0.296,0.08217988142183924,-0.31922159266174677,0.54,delta
"('Fp1', 'T5')",0.007845686150494368,0.2996092414621334,0.2996092414621334,0.5501620737130352,0.28959964383209685,0.008,0.4980212905899736,0.2753087789661252,0.03,0.4765737756584609,0.24944539605279542,0.056,0.3813472689002226,0.2558582043400049,0.09,0.3389551473288989,0.23220440964736094,0.112,0.2148439841413098,0.24389111494723356,0.248,gamma
