,p_vals_full,mean_eff_size,abs_eff_size,p_vals_sz_20,eff_size_sz_20,freq_repr_sz_20,p_vals_sz_25,eff_size_sz_25,freq_repr_sz_25,p_vals_sz_30,eff_size_sz_30,freq_repr_sz_30,p_vals_sz_40,eff_size_sz_40,freq_repr_sz_40,p_vals_sz_50,eff_size_sz_50,freq_repr_sz_50,p_vals_sz_70,eff_size_sz_70,freq_repr_sz_70,band
"('Fz', 'F4')",1.380772397759847e-26,-1.0718267903736287,1.0718267903736287,0.4094863962482244,-1.1871282418493558,0.292,0.15326422038695636,-1.1676313781316587,0.632,0.04642888607936297,-1.1296370795880761,0.862,0.003578955079800113,-1.1074426984955352,0.984,0.00012957195523451384,-1.0889866726440502,1.0,9.226897790979632e-08,-1.0700666231164284,1.0,alpha2
"('F3', 'Fz')",5.744588325574312e-27,-1.0564949869663196,1.0564949869663196,0.38175704126276094,-1.2267225373988402,0.344,0.1999744581457618,-1.1768639020488474,0.592,0.081490423713269,-1.1285656144508984,0.782,0.009628252377284166,-1.1154821506963928,0.97,0.0006067015548374209,-1.110983631223959,0.998,6.696235123440855e-07,-1.0912244538488904,1.0,alpha2
"('F7', 'Fz')",1.8770826064060892e-24,-1.007303694641942,1.007303694641942,0.4471845599839729,-1.1708425722362377,0.286,0.255262651606556,-1.1188145644535732,0.488,0.13075115090734796,-1.0942307018901136,0.71,0.014720775200503633,-1.0759205472763211,0.952,0.0012047333292435128,-1.0457693203381762,0.998,1.2996159504626554e-06,-1.0282522077407963,1.0,alpha2
"('Fp1', 'F3')",5.572296823973642e-24,-0.9987356484032539,0.9987356484032539,0.42175689265058164,-1.1615073925082033,0.272,0.19105204348171695,-1.129385206052391,0.538,0.09109609337178785,-1.0791601394092893,0.712,0.008280987077724337,-1.0700642320484102,0.976,0.00032908958242350517,-1.0332993864495508,1.0,7.87190443722497e-07,-1.0112536426024925,1.0,alpha2
"('Fp1', 'Fz')",3.227829270614786e-24,-0.9796308489743849,0.9796308489743849,0.46283581143528335,-1.1173983554071774,0.23,0.19557125481861187,-1.1046318728113165,0.536,0.08523709287306408,-1.0693522663230146,0.728,0.00644869682562596,-1.0555555369772522,0.974,0.0002594255610940866,-1.0259548042582889,1.0,7.368268462648258e-07,-1.0125169963470484,1.0,alpha2
"('F3', 'F4')",1.1810810767871527e-21,-0.9349794960289864,0.9349794960289864,0.5866771086167176,-1.0413363882493376,0.17,0.3479201822955001,-1.0407273806875985,0.41,0.2081294291417239,-0.9836617744680389,0.534,0.04253824562407505,-0.9734705799927317,0.888,0.005188021870912476,-0.9620929017691118,0.982,1.7752882121738375e-05,-0.9431234303548278,1.0,alpha2
"('F7', 'F3')",2.3677372553485856e-20,-0.9018871201155323,0.9018871201155323,0.5814593323508953,-1.0883024049395738,0.204,0.34008821927096455,-1.0763541335126936,0.392,0.1594452439905075,-1.0365976536920647,0.554,0.02191753438431973,-0.9990457561409906,0.914,0.002216967362718276,-0.9742261050754454,0.994,1.0285530428364039e-05,-0.9460532115541338,1.0,alpha2
"('Fp2', 'F4')",6.36265093312146e-20,-0.8786297931854374,0.8786297931854374,0.6152375706010793,-1.0410568415651644,0.182,0.3974489252713989,-1.0041936932140738,0.382,0.272288096248115,-0.9698318000579804,0.51,0.0632284085455652,-0.9585968285787345,0.828,0.010905388856772143,-0.9226789936792156,0.954,7.765222757292968e-05,-0.89936791838355,1.0,alpha2
"('Fp1', 'F7')",1.662796429584152e-20,-0.8740910794376753,0.8740910794376753,0.6461495389242295,-1.021534900514879,0.13,0.3920088874976371,-1.0020685773580935,0.294,0.19242347180373762,-0.9834589954323376,0.534,0.02846563241617427,-0.9571774543806892,0.888,0.003156640141439252,-0.9390369829659344,0.99,1.215064372214376e-05,-0.9220043093440212,1.0,alpha2
"('Fp2', 'Fz')",3.00902072024559e-20,-0.8685622399237735,0.8685622399237735,0.6074638503406066,-1.0381853295992614,0.174,0.37743073663916815,-1.020551704531491,0.354,0.23350179395583318,-0.9855267027415058,0.558,0.053485920302424064,-0.9641142535523914,0.826,0.0102473267920027,-0.9277592788019842,0.966,2.7918800426133732e-05,-0.9121204530777476,1.0,alpha2
"('Fp1', 'F4')",6.343601087145312e-20,-0.8632941342326339,0.8632941342326339,0.6222902434520242,-1.0100079681507628,0.144,0.4121467597880881,-1.0010442272664974,0.34,0.26174642841672235,-0.9528988129943673,0.498,0.05359762046631225,-0.9388498857604174,0.834,0.008094809006720355,-0.9094493091669551,0.966,0.00010613547973180154,-0.8949458409460462,1.0,alpha2
"('F7', 'F4')",2.1159784964462323e-18,-0.8491910972914452,0.8491910972914452,0.6857073050620464,-0.9519223742037103,0.114,0.513341730242786,-0.9304716773423993,0.248,0.3477282105586738,-0.8916989836352907,0.398,0.11037965090362366,-0.8908710436195622,0.736,0.022877457081621144,-0.8761521827630238,0.93,0.00018171919419160553,-0.8513384626969449,1.0,alpha2
"('F7', 'T6')",2.38240201973737e-16,-0.8058524093308492,0.8058524093308492,0.7532950944425664,-0.8902894121688073,0.09,0.5654217232782123,-0.8790334692699324,0.192,0.4582564423134124,-0.8378082462458705,0.302,0.18420263185504043,-0.8209049088245214,0.592,0.05414265562378728,-0.8139255506240132,0.844,0.002180223690968883,-0.7953154351392614,0.994,alpha2
"('Fp1', 'F3')",2.4425111511032788e-17,-0.8012809261701126,0.8012809261701126,0.8088297515287594,-0.8909100139040613,0.022,0.586135032650685,-0.8671790442547626,0.104,0.34579419084497887,-0.8504032404465101,0.276,0.052491565446106954,-0.8468331325110887,0.776,0.00803942489669149,-0.8219978487657608,0.976,6.020361933200875e-05,-0.8204571449649396,1.0,beta1
"('Fp1', 'O2')",5.965494785423261e-15,-0.796540318286471,0.796540318286471,0.7949949692497684,-0.8591342193530449,0.066,0.6262838736804306,-0.8362872238511802,0.164,0.5184999897836337,-0.8059053800406532,0.26,0.24624230429067148,-0.7752181040943512,0.512,0.0807860038111967,-0.7753637762712449,0.778,0.008112776977421762,-0.7453162208456663,0.974,alpha2
"('F7', 'Cz')",2.7667210811618022e-14,-0.7677584266426745,0.7677584266426745,0.7909741792828939,-0.8272192416856309,0.07,0.6508414095856647,-0.8261555446643986,0.154,0.5296997047953024,-0.8044598541938333,0.254,0.27577633834733545,-0.7888181352363585,0.514,0.13311662541920632,-0.7639362666755064,0.712,0.013476191036671555,-0.7467522625240036,0.954,alpha2
"('Fp1', 'Fz')",5.685633480153307e-15,-0.752667382262902,0.752667382262902,0.8603707374503925,-0.8230769901049526,0.02,0.7129304569250746,-0.799512989816738,0.08,0.5026626277679266,-0.7912462569241121,0.186,0.18896691947029437,-0.7723613795282496,0.506,0.04943657153887507,-0.7637647388573924,0.822,0.0010947597909056503,-0.7518011827739459,0.998,beta1
"('Fp2', 'F7')",1.2865568385079795e-14,-0.7507278877843664,0.7507278877843664,0.8210315013971115,-0.822927030434898,0.054,0.6642625742177111,-0.8069603381257768,0.136,0.5325477673155093,-0.7857018082725099,0.214,0.2442093240096867,-0.7855996031785707,0.506,0.09844415986497754,-0.7639838221531488,0.762,0.0034885784695686513,-0.7422637774299149,0.984,alpha2
"('Fz', 'F8')",9.417601539066974e-15,-0.7490597646812215,0.7490597646812215,0.7687987738777775,-0.8737002728619675,0.074,0.6637747657161157,-0.8240092807382123,0.136,0.5221751975351672,-0.8031594674908439,0.238,0.22775854949989147,-0.8002478556789464,0.532,0.09497017148387352,-0.7704508718323962,0.738,0.004289177759624023,-0.7550514236145159,0.98,alpha2
"('Fp2', 'F3')",6.4716063811056e-17,-0.7471957946751064,0.7471957946751064,0.7548833235255021,-0.92172984336017,0.08,0.5269601583149744,-0.921920875334281,0.21,0.42065461950113303,-0.867611801707726,0.302,0.09485088946730483,-0.8701490003502889,0.746,0.022151507753758466,-0.8405724423203221,0.924,0.0005781146633740384,-0.8223248564655808,0.998,alpha2
"('C3', 'Cz')",2.03934384331258e-16,-0.7427807309000625,0.7427807309000625,0.7750830443083302,-0.8840625673993504,0.058,0.5957359090234536,-0.8654511637739973,0.166,0.45001663411576265,-0.837193920189182,0.288,0.1395006502888526,-0.8168559706290363,0.632,0.0460627955605078,-0.7998340130925552,0.858,0.0007234153972110228,-0.7998778152732002,1.0,alpha2
"('Fp2', 'F4')",1.252249771932295e-15,-0.7367099659298801,0.7367099659298801,0.8107175947104915,-0.8351642335549596,0.058,0.6668922606716577,-0.8021085475849553,0.118,0.4695417160663585,-0.8128654972619892,0.284,0.2071412338815074,-0.7902986658971023,0.562,0.05501396030057247,-0.7796018161688695,0.814,0.002398682602593584,-0.7702206176004496,0.99,beta1
"('F7', 'O2')",1.6409720572823498e-16,-0.7322788733220191,0.7322788733220191,0.745303446501499,-0.8969789431830054,0.08,0.5867460188021405,-0.8623720049189754,0.178,0.4316908503082846,-0.8439182544608634,0.318,0.17910024133580163,-0.8205519566859875,0.606,0.045638907946063005,-0.8115384146156877,0.848,0.001880566093118095,-0.7944481281396337,0.99,alpha2
"('F3', 'F8')",8.590903132046549e-15,-0.730526042128705,0.730526042128705,0.817431596016001,-0.8193701210370917,0.038,0.6904460163284667,-0.7890246529021603,0.1,0.5401468941613148,-0.7718561417848335,0.184,0.21985771071113114,-0.777989608659713,0.498,0.07355019583924098,-0.7638813818427265,0.758,0.002939949062279826,-0.7486511738773357,0.99,alpha2
"('F4', 'F8')",4.2150819239459054e-15,-0.7232857103013431,0.7232857103013431,0.6691062309834293,-0.9389635891431746,0.166,0.5717677311538468,-0.8938758552518725,0.242,0.4913867582012606,-0.8589368266171717,0.33,0.25406145452810247,-0.8384659973444132,0.544,0.13911511752363157,-0.8018168905294524,0.712,0.010080751710587638,-0.7840073119766334,0.958,alpha2
"('T3', 'Cz')",2.879389582349808e-14,-0.7088862401925016,0.7088862401925016,0.8614640670437299,-0.8008003108707475,0.022,0.7400714595452983,-0.7748814309076206,0.068,0.580791253583148,-0.7623035947877994,0.15,0.23693266807546087,-0.7475807851928581,0.44,0.079544865752292,-0.7443546371871924,0.762,0.0016529215987118647,-0.7284509112494539,0.996,alpha2
"('Fp2', 'Fz')",1.416726548978023e-13,-0.7018567542422666,0.7018567542422666,0.8893175688797094,-0.7639635172080298,0.018,0.764847257145514,-0.733975416574646,0.058,0.5974243842453779,-0.7397341853949229,0.154,0.32650043545082025,-0.7186725618210219,0.396,0.12583378495622088,-0.714281231693488,0.676,0.00629912666840311,-0.708225227198695,0.972,beta1
"('Fp1', 'F3')",3.500366440351932e-13,-0.6940589696509972,0.6940589696509972,0.9141932106076905,-0.7965895916864055,0.016,0.7746413538133525,-0.7813611755948969,0.042,0.6057693884795431,-0.7647986384942054,0.12,0.2494059120053467,-0.7417101429225349,0.374,0.054504333054263894,-0.7292514923078542,0.754,0.00161905698685902,-0.7106171090095592,0.996,alpha1
"('Fp1', 'T6')",8.373662856942569e-13,-0.6876274458422492,0.6876274458422492,0.8793777881417041,-0.7431390623106545,0.016,0.7609250230268197,-0.7330117791468002,0.084,0.6450164228124471,-0.7159894994107207,0.116,0.36873863777186505,-0.7044042088261953,0.352,0.1738084470336835,-0.7006174203089337,0.612,0.01571576985709259,-0.6827894031680536,0.944,alpha2
"('Fp2', 'F4')",8.743494788927756e-14,-0.6790386975001331,0.6790386975001331,0.8480760554598096,-0.7890488281271912,0.04,0.7214965427833209,-0.7657502633098835,0.078,0.5292293075266702,-0.777302491697485,0.224,0.30849834025279815,-0.7418781972307132,0.448,0.12808158395969707,-0.7340132461362997,0.682,0.011997137245673485,-0.7173283935648327,0.96,beta2
"('F4', 'Cz')",1.042552284496028e-12,-0.6721821945349525,0.6721821945349525,0.8644218930746651,-0.76207536603616,0.026,0.7761671544256645,-0.7326757298515137,0.088,0.6243755755067842,-0.7433095015479823,0.176,0.3951604702422896,-0.7141599863138511,0.372,0.17975877323030287,-0.7032538763575231,0.612,0.022056045216218307,-0.6907753916357091,0.936,alpha2
"('T6', 'O2')",1.1664547330333595e-14,-0.6695962549655596,0.6695962549655596,0.7814574487025951,-0.8478255583656108,0.048,0.6560780031367744,-0.8085988570921341,0.134,0.5041835158781407,-0.7891682105484612,0.23,0.27409714464186985,-0.774302815868586,0.492,0.1229742890556463,-0.7575251046342618,0.714,0.007812171987460547,-0.7460933071335535,0.976,alpha2
"('Fz', 'F4')",2.3874343287672924e-12,-0.6656840577419331,0.6656840577419331,0.9030040320144789,-0.7358810173561149,0.008,0.8091221858087183,-0.7162528265180984,0.056,0.6607653354861267,-0.7287684159625918,0.128,0.4225439752531798,-0.6897002712006225,0.312,0.1696875764024909,-0.6927980912838355,0.588,0.01851755539853569,-0.6807544102988374,0.952,beta1
"('F8', 'O1')",2.2707509767979533e-11,-0.6640409343149039,0.6640409343149039,0.8862822636819939,-0.72403094031813,0.03,0.8099691531375929,-0.7000991486681863,0.052,0.7386122242604447,-0.6595980988040998,0.09,0.4856366591242304,-0.6593803733788691,0.264,0.29463026522692576,-0.6498428018084244,0.452,0.05330373988704632,-0.640987143696242,0.842,alpha2
"('Fp1', 'Fz')",7.064270125284337e-11,-0.6513028102317551,0.6513028102317551,0.949023723168756,-0.6781546646504762,0.004,0.8682197615609865,-0.6553238458453517,0.022,0.7523086404883759,-0.6607279603637206,0.054,0.499176440027214,-0.6408826563465981,0.188,0.25687367408426326,-0.6420757728313123,0.464,0.040031994401788,-0.6370478824018803,0.87,beta2
"('T3', 'C3')",6.423481664086774e-12,-0.6475531139866987,0.6475531139866987,0.9189558987798504,-0.7306729212191662,0.008,0.8361667341202044,-0.7069678975411777,0.034,0.726744022624613,-0.6934955959345969,0.068,0.40877197017799927,-0.678078977890198,0.272,0.17594317741915502,-0.6733765018656939,0.536,0.011115558348244728,-0.6591346071216252,0.952,alpha2
"('F3', 'T6')",1.0566779873429962e-10,-0.635867931723243,0.635867931723243,0.9125958416604526,-0.686457561037803,0.014,0.8175712509515248,-0.6937191721752279,0.052,0.7717545768567098,-0.6491333079143495,0.072,0.5263995599512767,-0.6453787589330234,0.222,0.3313653884539809,-0.6363849186255989,0.408,0.0672737407969755,-0.6215963275323544,0.812,alpha2
"('F4', 'F8')",1.7009813923780867e-10,-0.6353826994552234,0.6353826994552234,0.8850874336799487,-0.708308437638056,0.022,0.8277624825918931,-0.6739161502270039,0.056,0.6631006616639378,-0.6928924547236354,0.13,0.539261081268429,-0.6529994838483894,0.26,0.34751705294309143,-0.6489685882239903,0.436,0.08818808082458561,-0.6338193833805139,0.764,beta1
"('F4', 'F8')",3.086453025711603e-12,-0.6333332995494809,0.6333332995494809,0.9134602106487464,-0.7273904833831248,0.01,0.8368636838006276,-0.6984159772334103,0.022,0.6581436028989154,-0.7151191662961164,0.114,0.39187244114557196,-0.6820358179063625,0.28,0.17352381620327265,-0.6831202303418332,0.578,0.015651804383331268,-0.6765134229340926,0.926,beta2
"('Fp1', 'F3')",3.884100738353504e-11,-0.6302559796452601,0.6302559796452601,0.915570995283826,-0.6985728501599633,0.016,0.831591129860494,-0.6932190053235664,0.06,0.7111219583592209,-0.6855696311976537,0.09,0.47780648982911855,-0.6651475480604339,0.244,0.27470695000099177,-0.6467221459907314,0.47,0.05006347485081626,-0.6346812104454252,0.834,beta2
"('Fp1', 'Fp2')",1.3777598345140836e-10,-0.6280648823002912,0.6280648823002912,0.8688467797522722,-0.7474048292965888,0.064,0.7831607730711644,-0.7149735052186463,0.078,0.7142468042712827,-0.6850955160606452,0.146,0.48972783653586327,-0.6831609875902361,0.3,0.32265436420798815,-0.6570326814658466,0.422,0.08561180873011481,-0.6422851669117952,0.776,alpha2
"('Fp2', 'O2')",1.0209125706264268e-11,-0.6243891259721346,0.6243891259721346,0.876938017692092,-0.7557868102282014,0.02,0.7877120507802603,-0.7249015050295168,0.07,0.6704008074098472,-0.7075320511014411,0.144,0.4478278074304408,-0.6875012199792006,0.314,0.23169811999413295,-0.6737563561904139,0.524,0.05135775458840207,-0.656584154161932,0.87,alpha2
"('Fp1', 'F7')",2.4983410455045143e-11,-0.6198146712306867,0.6198146712306867,0.9212910867602716,-0.682479028089594,0.022,0.8417136793862048,-0.6747862896471188,0.036,0.7082866881782361,-0.6904422525544139,0.112,0.4708179502611001,-0.6663740722028596,0.258,0.24810812947518865,-0.6577490940457317,0.492,0.026421106626811283,-0.6561104072266107,0.89,beta2
"('F3', 'Fz')",7.362452449394248e-11,-0.6196856466981837,0.6196856466981837,0.9372722317806725,-0.6839881523866606,0.006,0.8745489635389124,-0.6608632131241484,0.024,0.7616576537853842,-0.6609897067840917,0.072,0.5138056333044841,-0.6502786835228715,0.214,0.26354666731909565,-0.6501755882344198,0.45,0.03188412479998204,-0.6395123940715483,0.88,beta1
"('Fp1', 'Cz')",2.4081428916301156e-10,-0.6182237973064693,0.6182237973064693,0.9494130320708767,-0.6712703980727306,0.006,0.8953983729710484,-0.6388433101294222,0.012,0.8130374146818089,-0.6415991552586656,0.032,0.5609463603380475,-0.6298384882269585,0.174,0.31544160699586093,-0.6232919277538411,0.386,0.05150240789878617,-0.6151892852747312,0.818,beta1
"('F4', 'C3')",2.9037706599428627e-09,-0.6149151205002962,0.6149151205002962,0.9462732558024387,-0.6386895726920115,0.016,0.8705774381938803,-0.6278371603498241,0.028,0.7943019506128892,-0.6172597310184404,0.058,0.6436111667365603,-0.5983868192716004,0.168,0.40348640445396666,-0.5970808940900173,0.328,0.12327364916579074,-0.5864674555297599,0.682,alpha2
"('F3', 'Cz')",6.265425140401433e-12,-0.6147700321710461,0.6147700321710461,0.8490729205268172,-0.775003062691689,0.042,0.7069714353672656,-0.7639220728722239,0.108,0.5999215658567348,-0.73955333471781,0.16,0.3672572585887379,-0.7334692698638171,0.422,0.24663481417301797,-0.7089845732749329,0.594,0.05047537822886692,-0.6823760884662688,0.836,alpha2
"('Fp1', 'Fz')",1.2882153957085873e-10,-0.61065583666645,0.61065583666645,0.9336288479072412,-0.6971515698026988,0.006,0.8873790496795819,-0.6622615808689951,0.016,0.7482023846694601,-0.6690511688891322,0.06,0.5300476279059744,-0.6449456916300279,0.202,0.2672347072917721,-0.6420894190446299,0.442,0.051710810300209936,-0.62134933856072,0.842,alpha1
"('Fp2', 'F4')",5.570247067171343e-10,-0.6093020970359795,0.6093020970359795,0.9381694762535164,-0.657139755797076,0.01,0.8814668934534892,-0.6363880304850338,0.012,0.7408670218240131,-0.6490151354539043,0.08,0.5513313673865996,-0.6365476207725049,0.226,0.3767137509076608,-0.6080516804981876,0.338,0.09338263356919337,-0.6073915553227476,0.742,gamma
"('F7', 'F3')",1.958898881362365e-10,-0.6082514175460711,0.6082514175460711,0.9535952405516543,-0.6948639833086737,0.008,0.9138510231322111,-0.6594360149272995,0.01,0.7996729292694511,-0.6674409466161251,0.04,0.5286854472987349,-0.6418039273571181,0.138,0.2593476881855655,-0.6304766385092638,0.376,0.02099189575249118,-0.6292796674562646,0.904,beta1
"('Fp2', 'O1')",1.2958785093416936e-07,-0.5978167045649205,0.5978167045649205,0.9587578040125052,-0.6194837012274377,0.002,0.900146169431938,-0.5858806255339075,0.016,0.8519008750618078,-0.5739071293981851,0.04,0.7132192805265126,-0.5529180568962366,0.108,0.5606929511724027,-0.5444416962016865,0.212,0.2875701442030458,-0.5284578199655146,0.484,alpha2
"('T5', 'O1')",5.532981819061396e-09,-0.5929618589896284,0.5929618589896284,0.9066761287125054,-0.7000086687553757,0.038,0.8532014012045827,-0.6501520256571471,0.048,0.745957905179754,-0.6471866215143205,0.072,0.5739560624660879,-0.6232877750642384,0.216,0.44851948722368823,-0.6059239062136468,0.332,0.16083005021195523,-0.597909352170874,0.658,alpha2
"('F8', 'T5')",3.0457178974768275e-10,-0.591377306093348,0.591377306093348,0.9353576143361401,-0.6841055442781266,0.016,0.8854856525325018,-0.6580853413453426,0.018,0.7858756478296527,-0.6348796945812571,0.06,0.5672317768973303,-0.6300098138787416,0.182,0.33384951408026725,-0.6192262801405141,0.386,0.07172127943137019,-0.6113851109567301,0.788,alpha2
"('Fz', 'T3')",1.4744054479066784e-10,-0.5907702152374418,0.5907702152374418,0.913799893463916,-0.6770938181174763,0.02,0.8551645112401179,-0.6587806463219341,0.034,0.7725070968435516,-0.651898335807507,0.088,0.5332259711230836,-0.6319741127736666,0.252,0.32423056848454246,-0.6344232917879048,0.43,0.05619052023272711,-0.6272917525887551,0.806,alpha2
"('Fp1', 'F7')",1.0714768907092411e-10,-0.5852360106213061,0.5852360106213061,0.9385740456030887,-0.6711161535615024,0.008,0.8355844115049927,-0.673614976275807,0.034,0.7303713129512073,-0.6783419830399382,0.08,0.5211667357833483,-0.649582545609059,0.232,0.2895196716095583,-0.6362261264635577,0.408,0.04102312109471605,-0.6413700339149498,0.864,beta1
"('F7', 'Fz')",7.318807878950333e-09,-0.5834138423785026,0.5834138423785026,0.9480314681720658,-0.6286798951280567,0.0,0.911291225124237,-0.5943301138172519,0.02,0.8209017988910915,-0.6112780157672393,0.044,0.6801899781304147,-0.5844289937838149,0.114,0.45150862481269083,-0.582094516126609,0.248,0.13782900213254398,-0.5718952124229554,0.648,alpha1
"('F7', 'F3')",4.450319444339564e-10,-0.5826602156248039,0.5826602156248039,0.9486637698624472,-0.6922572264403158,0.002,0.8537131628902065,-0.6762809236941546,0.038,0.7440902100221557,-0.6774099314542651,0.068,0.5354591101034218,-0.6369777760485444,0.192,0.32326466095588763,-0.634364406016984,0.422,0.0736137314402073,-0.6214255748458892,0.772,alpha1
"('Fp1', 'F4')",1.0615151571565756e-08,-0.5818783736603249,0.5818783736603249,0.9535588157939451,-0.6279418770315763,0.008,0.9090963856742552,-0.5893521820776074,0.02,0.8268549111542182,-0.6002441924910893,0.046,0.6703283716418269,-0.5826421710518411,0.12,0.4439257613643448,-0.5757677177512632,0.246,0.1562440374026716,-0.5651099167895711,0.628,beta1
"('F3', 'Cz')",1.2166231367935043e-09,-0.5810289971450621,0.5810289971450621,0.9348310399713603,-0.6716998749578349,0.006,0.8916007976644481,-0.6429644435947336,0.032,0.8132752590464956,-0.6399923667137443,0.062,0.5704441325929483,-0.6315709785635255,0.176,0.3474394446056931,-0.6204708596166595,0.364,0.07184059673562587,-0.6111123668164132,0.774,beta1
"('Fp2', 'T6')",4.074411262609961e-09,-0.5790641087403892,0.5790641087403892,0.9380693652596411,-0.6361499639948678,0.006,0.866115823690716,-0.6325355938546703,0.034,0.8232005310147947,-0.6043812049116041,0.064,0.628174373656137,-0.5953184472222658,0.168,0.4378990526148291,-0.5943998361432499,0.302,0.14052482373359718,-0.5752835216950702,0.678,alpha2
"('Fp2', 'F8')",7.42854070754401e-10,-0.5790062114439863,0.5790062114439863,0.8200253443467445,-0.7641846952262799,0.058,0.7279423332217151,-0.7306099098887915,0.108,0.679976664350272,-0.698757209904608,0.17,0.5102645004891782,-0.68613727617226,0.318,0.40278081351128914,-0.6537884759861202,0.406,0.13848345539898543,-0.6308917590337627,0.686,alpha2
"('Fp2', 'Cz')",6.450903119907651e-10,-0.5759349339422155,0.5759349339422155,0.9372693989857791,-0.6666386406403443,0.008,0.8787374827720515,-0.6322438891607839,0.014,0.7791376986180226,-0.6341040325608597,0.076,0.5833165964088258,-0.6183192894764132,0.2,0.40131457186364106,-0.6136839388419306,0.36,0.09386865507442349,-0.605325394961531,0.74,beta1
"('Fp1', 'F8')",7.931636473249787e-09,-0.5752831768527984,0.5752831768527984,0.9114366197797276,-0.6654916491126178,0.02,0.839280646955738,-0.6481679052793459,0.046,0.7669346967244632,-0.6436219521938606,0.064,0.5688653772423744,-0.629229947224733,0.226,0.45206939067324664,-0.6036219082738463,0.336,0.17573260471864935,-0.5823957864161753,0.638,alpha2
"('Fp1', 'F7')",9.825724655838025e-09,-0.5727162101911445,0.5727162101911445,0.9719130800504224,-0.6120274321465357,0.0,0.9172883860307272,-0.606989589025547,0.016,0.8394572081479543,-0.62382468046967,0.038,0.6802909103375779,-0.5876266709080225,0.116,0.4640869980920595,-0.5849165998951463,0.282,0.11902306183845242,-0.5757191591587718,0.658,alpha1
"('Fp1', 'C3')",3.4329856406890375e-10,-0.5724087328543774,0.5724087328543774,0.9538256142604538,-0.6568430415497177,0.01,0.9017192289986832,-0.6332317374252935,0.012,0.8047759176918751,-0.636251148035328,0.036,0.5659910870574453,-0.6256459190454238,0.164,0.3229821151635623,-0.6172230775845735,0.396,0.04422144734043585,-0.610537867696047,0.84,beta1
"('Fp1', 'F4')",6.672557271319429e-10,-0.5698264304839828,0.5698264304839828,0.9226166799832879,-0.6785960451486515,0.016,0.8986996688978321,-0.6489386547316074,0.028,0.7894257150950071,-0.6512406355610304,0.076,0.5901635482509392,-0.6316515805102186,0.152,0.3498511402641351,-0.6179381092536701,0.336,0.06192298659232055,-0.6059461286198813,0.794,alpha1
"('Fp2', 'F3')",2.1381793811794544e-09,-0.5692983449414406,0.5692983449414406,0.9481216797366703,-0.6601154354753368,0.012,0.8937774164302893,-0.6509488556490548,0.032,0.7991128665794293,-0.6396238639541011,0.044,0.6039426456246919,-0.6245195933207996,0.156,0.3846626309119492,-0.6067750182894308,0.31,0.08490998147025398,-0.5941357968875854,0.74,alpha1
"('C3', 'C4')",8.466179276918277e-10,-0.5688930873601767,0.5688930873601767,0.9148326167668694,-0.6862604175812854,0.03,0.8526215518726562,-0.6440851910156624,0.04,0.7842580876684687,-0.6337556522700479,0.074,0.5469580810851903,-0.6376301510515754,0.198,0.34863720815745747,-0.6277527524485956,0.378,0.10162645602562001,-0.6129377327971433,0.754,alpha2
"('F3', 'Fz')",2.4244631873739403e-09,-0.5688461531833403,0.5688461531833403,0.8713934466117672,-0.7221433581417432,0.032,0.8060991665887335,-0.6711053785297032,0.064,0.6834439050284775,-0.678705150332041,0.12,0.553457454974061,-0.6442400074303235,0.268,0.37389047596131236,-0.6388046419414134,0.434,0.19403785622429748,-0.6152268058612691,0.64,alpha1
"('O2', 'P3')",1.0348611874953996e-08,0.567543736598783,0.567543736598783,0.9463453946882954,0.6087257298281161,0.012,0.8960324887355128,0.6225903701519548,0.026,0.8159102758892371,0.6195483062079636,0.044,0.6419377677533431,0.598491149268453,0.138,0.49493667261914037,0.574050676329012,0.25,0.14310755884757126,0.5733802919917147,0.636,alpha1
"('Fp2', 'F4')",4.54053440385842e-09,-0.5656969508366434,0.5656969508366434,0.944770424155419,-0.6687765512848595,0.008,0.8970476812359798,-0.6486003522625382,0.032,0.8008725545417601,-0.6360505129669283,0.056,0.6289762220784901,-0.6161394236234778,0.132,0.43005595658177515,-0.5965528245815,0.262,0.1103628196694809,-0.5842960432173204,0.666,alpha1
"('O1', 'O2')",1.4308417218333986e-08,0.556691406335439,0.556691406335439,0.8987808640640316,0.6955686517353304,0.036,0.813363015456061,0.6738882456284855,0.07,0.7205502787709519,0.6613591608160078,0.114,0.5146320908054589,0.6531692535098426,0.288,0.44371325698189956,0.6095541840177061,0.376,0.2218382724852076,0.5947463291657662,0.606,alpha1
"('Fp2', 'C3')",9.24528922588471e-09,-0.555601779479491,0.555601779479491,0.9739666119750544,-0.5904357654544061,0.002,0.9428202571604339,-0.5718629595179279,0.006,0.8699581250312739,-0.5864682592618287,0.016,0.6977544428687422,-0.5683971572565302,0.094,0.4672607583895912,-0.5661830174441784,0.226,0.12273631645783896,-0.5653226950239704,0.66,beta1
"('Fp1', 'F3')",5.809901933272241e-08,-0.5529666492128464,0.5529666492128464,0.9831118281348007,-0.6091212680115282,0.0,0.9677009166923823,-0.6023681543705253,0.0,0.919898558985871,-0.5851101454671517,0.018,0.7749271492003944,-0.5682451751026146,0.024,0.511343138031865,-0.562186194077613,0.12,0.13114955079821153,-0.5478314645530121,0.544,theta
"('T3', 'Pz')",3.3117323305658167e-09,-0.5512340059103276,0.5512340059103276,0.9451228921551823,-0.653495382662407,0.006,0.8927604843716189,-0.613332855893373,0.024,0.8314828519236431,-0.6055739322266039,0.026,0.6334564149554137,-0.5974256493522984,0.13,0.452450668762418,-0.5882900070234404,0.278,0.11393493480890281,-0.5819555561317921,0.682,alpha2
"('F7', 'F8')",1.7951226841318276e-08,-0.5502435499291345,0.5502435499291345,0.9462561846073825,-0.620277971567428,0.012,0.8964097977674956,-0.5997405932778974,0.022,0.8221060782353597,-0.6006994060675109,0.056,0.6648394914982199,-0.5861603638585,0.154,0.49104285190491764,-0.5773543466328734,0.276,0.16732631085611951,-0.565249895569744,0.6,alpha2
"('O2', 'Pz')",3.1808945613327395e-08,0.5485809669940486,0.5485809669940486,0.9587967539191743,0.6074623790974836,0.002,0.9252280676458731,0.5826154287210594,0.012,0.8570959805860269,0.5902235861415732,0.032,0.6829995274922094,0.5760585923219538,0.126,0.525501159147779,0.5572250508740447,0.222,0.1837272764492439,0.5487885914083217,0.574,alpha1
"('F3', 'T3')",2.0680490704733223e-08,-0.5466144914924059,0.5466144914924059,0.9351837339835019,-0.6145713856580329,0.016,0.9009439927807726,-0.6131678399087498,0.018,0.83777431037181,-0.5971223421462225,0.032,0.6673048554804402,-0.578360423110435,0.124,0.5012043699174265,-0.5709121233117862,0.252,0.17721634608431422,-0.5639880979877264,0.588,alpha2
"('Fp1', 'C3')",7.310141561691783e-07,-0.545373476756223,0.545373476756223,0.980343355328404,-0.5814516283235466,0.002,0.9598869468934539,-0.5454081572687715,0.004,0.8737344551843319,-0.5569985490435316,0.016,0.7930709530398988,-0.523704428302385,0.07,0.6175905335525251,-0.5255350398307126,0.176,0.33214201580166297,-0.5152922477207839,0.416,alpha1
"('F7', 'F3')",4.204281995017207e-09,-0.5446714069063737,0.5446714069063737,0.9560588061424189,-0.6288781137648529,0.008,0.9223783356473321,-0.5957588982359621,0.008,0.8222277429826291,-0.6149955716158965,0.044,0.6391485543193094,-0.5971370098534997,0.092,0.42693856229128535,-0.5874901127164516,0.278,0.10888935397189024,-0.5781800506647198,0.696,beta2
"('F3', 'O2')",2.2034505462962314e-08,-0.543853740588097,0.543853740588097,0.947243831905458,-0.6146933776475955,0.008,0.9042564221917567,-0.6042999232436128,0.018,0.8576278069910711,-0.5786175953019501,0.032,0.6734698724338842,-0.5767290660876642,0.134,0.5229831946569774,-0.5649070414007961,0.238,0.19042616003105886,-0.5517103159444523,0.58,alpha2
"('F7', 'Pz')",3.6550923769767e-08,-0.5386367662221134,0.5386367662221134,0.9449494388304049,-0.6194973197593613,0.016,0.897000105673054,-0.596682644229773,0.03,0.8168642990505189,-0.592162322082482,0.074,0.6846169593173652,-0.581298080834545,0.116,0.5018756725065305,-0.5721259838321124,0.25,0.2387275340661565,-0.5559907506464251,0.528,alpha2
"('Fp2', 'F3')",5.565194557977162e-08,-0.5263958036499805,0.5263958036499805,0.9806151205197379,-0.591459825837428,0.002,0.9390496890400274,-0.5622980396656361,0.006,0.9088970144793829,-0.5690112052455003,0.024,0.7424374543028464,-0.5599865030063657,0.066,0.5494537460589812,-0.5496911237526549,0.156,0.16675022031661874,-0.543896370196389,0.562,beta1
"('Fp2', 'Fz')",4.1763449453089425e-09,-0.5258168800627001,0.5258168800627001,0.9354039781887874,-0.6274407715048508,0.012,0.90569289717514,-0.6023863693174927,0.016,0.7967975106579958,-0.6233371729076562,0.06,0.6571334800471947,-0.5896866748658784,0.142,0.4224661780838017,-0.5857739063680393,0.278,0.13542337323700254,-0.5778504042452827,0.644,beta2
"('Fp1', 'T3')",4.7018149297264725e-07,-0.5252191980926894,0.5252191980926894,0.9626044342031401,-0.5616712691345749,0.006,0.9295553754749627,-0.5524754571800469,0.012,0.9020559081136632,-0.5321059298759295,0.016,0.7875517513303126,-0.5341774937055038,0.074,0.609927477765425,-0.5222023533925158,0.14,0.30690927854293154,-0.5163905404797068,0.408,alpha2
"('Fp2', 'Fz')",1.2954258017331477e-07,-0.5244063771625374,0.5244063771625374,0.9583096974169943,-0.6392277906778016,0.004,0.9129789106107384,-0.6036073001782388,0.01,0.8095120787650713,-0.6122788176622845,0.04,0.676147179426087,-0.5680317449098156,0.112,0.5136474853546525,-0.5642555447838774,0.27,0.30372491276751784,-0.5393392193004889,0.47,alpha1
"('Fp2', 'C3')",1.1179717909064823e-07,-0.5230584963124143,0.5230584963124143,0.9632983336325553,-0.574046433872027,0.004,0.9588214384675581,-0.5372818389298206,0.002,0.8694616451271969,-0.5620401965081778,0.042,0.7816274206973756,-0.5314209869919277,0.08,0.5832668917664199,-0.5395026069029822,0.18,0.23913786302921852,-0.5310723219159587,0.488,alpha1
"('Cz', 'C4')",4.879420105141552e-10,-0.5207782573793648,0.5207782573793648,0.8763528049188138,-0.7308703083091282,0.032,0.7845474508033682,-0.6969829235056515,0.06,0.6745940898568936,-0.6877725643724125,0.118,0.45435754566168896,-0.6666031118979734,0.304,0.32864410744724065,-0.6591972242875733,0.51,0.12395561776037292,-0.6454034748967057,0.736,alpha2
"('Fp1', 'C3')",2.0116806128907946e-06,-0.5194751343306618,0.5194751343306618,0.9855832619412195,-0.525730871998205,0.002,0.9817014386646584,-0.49096105285896924,0.0,0.9338437828345155,-0.5061699650991607,0.002,0.8271212513990296,-0.5050157938304626,0.038,0.713717153257196,-0.4911944754922859,0.07,0.3597773758802835,-0.4938625040220853,0.336,delta
"('F7', 'P4')",9.817343928587716e-07,-0.5191787866657078,0.5191787866657078,0.9655686072967297,-0.5461407132805444,0.004,0.9468371966813549,-0.5511815121158584,0.012,0.8842258400091194,-0.5315069688035239,0.026,0.7754258962439188,-0.5199662775347083,0.084,0.6595708150169449,-0.5106642943790313,0.156,0.35948511817276657,-0.4959564753169295,0.37,alpha2
"('T4', 'C4')",6.475215780793762e-07,-0.5171424685458479,0.5171424685458479,0.9753120424664745,-0.5764302209452067,0.006,0.9683343670184055,-0.5446677694347165,0.004,0.9143970992781617,-0.5407833994648193,0.016,0.8124461482011669,-0.5290608539207031,0.048,0.6536835961021202,-0.5262789470355126,0.118,0.2745171036382257,-0.5162034242523431,0.38,alpha2
"('T4', 'C4')",2.454284877833435e-07,-0.5166421484783845,0.5166421484783845,0.9671540562138288,-0.5711924143528698,0.004,0.9202935683869305,-0.5505984534253756,0.02,0.8694937860063378,-0.5601855108328978,0.022,0.7364492759100234,-0.5498127161270523,0.108,0.636612392495018,-0.526003452029165,0.154,0.2842867468493802,-0.5177307427918485,0.428,beta2
"('Fp1', 'O1')",2.4866636105942216e-07,-0.5144461238083109,0.5144461238083109,0.9741178484945664,-0.5972440220708666,0.004,0.9174804017407494,-0.5671923330266118,0.006,0.8950611600031483,-0.5458509755614759,0.026,0.7589335974856317,-0.5346257612089389,0.072,0.5965107906742116,-0.5334525282865665,0.18,0.2856864306587751,-0.5208181397243253,0.406,alpha2
"('F4', 'Cz')",1.5353999812388182e-06,-0.5099267517126694,0.5099267517126694,0.9662528253232074,-0.5688463098300509,0.008,0.9522991940579828,-0.523216346653818,0.004,0.8949518937425938,-0.5355695077149296,0.03,0.8066650410920926,-0.5062634353068735,0.062,0.6560252061904646,-0.5176549195710386,0.13,0.35813101127031305,-0.5064324396271241,0.358,beta1
"('F3', 'C3')",2.9621286701498227e-07,-0.5074089268724409,0.5074089268724409,0.9881373698171151,-0.5688287881770876,0.0,0.9557557819296362,-0.5636512138453984,0.002,0.9253370599019671,-0.5651423372641062,0.01,0.8155274580488073,-0.5445143844498929,0.038,0.628471754479606,-0.5354059311640736,0.112,0.20593762692171613,-0.5308220076143325,0.482,beta1
"('Fz', 'F4')",9.70950854856526e-07,-0.5071764203017197,0.5071764203017197,0.9058311953872251,-0.6808748144819574,0.024,0.8761661712679092,-0.6289085251601687,0.032,0.7695977247567348,-0.6331767926934835,0.076,0.6078818183936554,-0.590623977570789,0.19,0.44604403062624415,-0.5927137255066443,0.346,0.39142105466726956,-0.5498719414868961,0.496,alpha1
"('F3', 'F4')",3.2712946804160734e-07,-0.5070424220980894,0.5070424220980894,0.9572093088156326,-0.5830392203539544,0.006,0.9241932784937336,-0.5616920385300573,0.012,0.8978206333424438,-0.545400400185791,0.02,0.7688025267796144,-0.5333342184339323,0.064,0.5887492576857429,-0.5308345855177568,0.18,0.27149709050487164,-0.524721340136218,0.44,alpha1
"('Fz', 'T6')",2.6450611061449247e-08,-0.5060273968567548,0.5060273968567548,0.9672865738782631,-0.5935449223295153,0.002,0.8962225624682202,-0.5949926975851312,0.024,0.8673528067408212,-0.5712184938712715,0.038,0.6833805434377704,-0.5725171432261804,0.128,0.5096929898248148,-0.5573135109676784,0.226,0.20055683844598549,-0.5454579875794837,0.578,alpha2
"('F8', 'Cz')",4.0195603563512065e-07,-0.5055826780666746,0.5055826780666746,0.9577621912032326,-0.5699704894479489,0.006,0.9278441061943182,-0.5512202821101326,0.018,0.8805720296490329,-0.5520890670882515,0.04,0.74438367841479,-0.5494220731403952,0.096,0.6208003948234464,-0.5239982308152551,0.16,0.3217474093055189,-0.518778383043681,0.414,alpha2
"('F8', 'O2')",5.743626329804314e-08,-0.5053273667423329,0.5053273667423329,0.9532154528657693,-0.6161690802873679,0.01,0.8925156934162015,-0.5962344668024314,0.028,0.8284379556355055,-0.582456205664185,0.05,0.683439635912993,-0.5716281037046039,0.136,0.5664533121619522,-0.5535904942741223,0.22,0.22962146693459537,-0.5390311760931759,0.484,alpha2
"('Fp2', 'C4')",4.517626240733737e-08,-0.5013406940621093,0.5013406940621093,0.9647225339983279,-0.598403566831816,0.006,0.9556516843006289,-0.5566749536545643,0.002,0.8668605945059599,-0.5701767153428109,0.03,0.7153662944999756,-0.551885762741118,0.084,0.534729158572871,-0.5476848079380895,0.224,0.2327050030026022,-0.5409386111918383,0.522,beta1
"('C3', 'Pz')",2.8432861955037868e-06,-0.4958947561637399,0.4958947561637399,0.9808781173800247,-0.5527612682033864,0.0,0.9690285584309051,-0.5110534519631605,0.002,0.932295862941538,-0.5137767204010496,0.016,0.8036252491036507,-0.5063077131910855,0.044,0.7200282228225267,-0.49436468332666517,0.092,0.37341281828124956,-0.48931838510208514,0.31,alpha2
"('Fz', 'Cz')",1.4376066354031384e-05,-0.4897209184785461,0.4897209184785461,0.9747512568873232,-0.5046530622760947,0.0,0.9510071345859211,-0.5023379489207231,0.008,0.9223769821609431,-0.5070775082472796,0.016,0.8105236172674852,-0.49553148995531787,0.056,0.7498218468233038,-0.4793919643977413,0.118,0.5104111055372064,-0.46026068996914926,0.262,alpha2
"('F7', 'C3')",1.2389222651843579e-06,-0.4896247688159933,0.4896247688159933,0.9473901365648243,-0.5808288141484126,0.008,0.9066030216139719,-0.571953442262833,0.018,0.8498985021500081,-0.5592502644184038,0.046,0.731744600700862,-0.5418146940282251,0.094,0.6033900166065191,-0.5230840017655636,0.186,0.3805140676297142,-0.5136053945766935,0.402,alpha2
"('F8', 'T4')",2.5365033927777327e-06,-0.48949161145902015,0.48949161145902015,0.9702980691000038,-0.5406410555168328,0.008,0.9674385863673985,-0.49511176485466524,0.008,0.9289152139752952,-0.5128572868104075,0.012,0.8316246593471676,-0.5039505658767529,0.056,0.6892546281055689,-0.4944333789071609,0.102,0.38464389637809526,-0.4889985045175988,0.342,beta2
"('T6', 'Pz')",4.608002025933622e-07,0.48896618564429184,0.48896618564429184,0.950178368672357,0.5642171461189699,0.004,0.9160017291183762,0.5689626845651933,0.016,0.8586106336173084,0.5598483735733819,0.048,0.7574026328896032,0.5438819051722261,0.088,0.584883286944011,0.532414663341577,0.186,0.3040145148562812,0.5217637392464987,0.404,alpha1
"('Fp1', 'Cz')",1.1037113196503263e-06,-0.48723267697332007,0.48723267697332007,0.9633714303832107,-0.5624688583174561,0.004,0.9386950621717083,-0.5400537905430753,0.01,0.9016049123768454,-0.5380166923982553,0.024,0.7636241231363299,-0.5365478788784274,0.09,0.6720442998246393,-0.5126967672601045,0.13,0.37027050528632194,-0.5052610407961822,0.362,alpha2
"('Fp1', 'F4')",8.132545356296588e-06,-0.4855957417379636,0.4855957417379636,0.958395154442314,-0.534043097197804,0.002,0.953325574300147,-0.49358832456879115,0.004,0.9262969514874729,-0.5065999493693285,0.016,0.8357479168906461,-0.4939929169090864,0.042,0.7247061301639074,-0.4850295635526634,0.106,0.42932009463210424,-0.480069634026413,0.298,beta2
"('F4', 'O1')",5.785522168024462e-06,-0.4838634734650049,0.4838634734650049,0.9890286357930205,-0.5056515634905476,0.0,0.9701354675431522,-0.48373704761750047,0.004,0.9523763874551171,-0.4774670436301055,0.006,0.8622056513289654,-0.48007804504863966,0.026,0.7532520570986208,-0.4744169342645355,0.06,0.4480791756977107,-0.46461618678181144,0.2,alpha2
"('Fp2', 'F8')",1.527645351495821e-05,-0.48377654635911266,0.48377654635911266,0.9819761341814375,-0.5067275576157464,0.002,0.9733360056955019,-0.4800682173378047,0.0,0.9453898759297527,-0.47978127605529186,0.016,0.8785450666045971,-0.47342961189639293,0.018,0.7530362403973384,-0.4705231876820357,0.074,0.47977517393468855,-0.4629920297036233,0.24,beta2
"('F7', 'O1')",1.0937935347592137e-06,-0.4836184555324904,0.4836184555324904,0.9747266436918882,-0.5568030042896757,0.004,0.9422921716037416,-0.5291727957436906,0.014,0.9072615595483405,-0.5125347568837204,0.028,0.7933786982575705,-0.5124630186832873,0.056,0.6692521577427053,-0.506824307292714,0.128,0.35293815253971506,-0.4999930330882404,0.362,alpha2
"('T6', 'O2')",1.4014535945879714e-05,-0.4825157476784764,0.4825157476784764,0.9831874771822663,-0.5382234384727509,0.0,0.9607011470365348,-0.5188266172945707,0.004,0.9302037173745293,-0.511107553934663,0.01,0.8709873280411503,-0.4891290708211089,0.028,0.7520703774119707,-0.4720210111185864,0.07,0.4743210718494768,-0.47223989212172773,0.232,beta2
"('F3', 'C4')",9.079253355253789e-07,-0.48224435119768677,0.48224435119768677,0.9657750763925657,-0.5546195582585687,0.008,0.9436434159005099,-0.532883442035626,0.014,0.9094033007989968,-0.5246474720453377,0.024,0.7744169685523076,-0.5288381663092734,0.09,0.6426560667108058,-0.5159432983768281,0.154,0.34984220210249234,-0.5031835188841293,0.398,alpha2
"('F4', 'C4')",2.0905601906020157e-05,-0.482172406587682,0.482172406587682,0.9778392322092245,-0.5458161570242663,0.004,0.9674987581998401,-0.5056465479205539,0.01,0.9191613061090096,-0.5118924322418118,0.018,0.8705110456920648,-0.48390696740108274,0.026,0.7613722274248904,-0.482574652177692,0.074,0.5213022657746923,-0.4676949750644708,0.194,beta1
"('Fp1', 'Fz')",1.8443636589039944e-06,-0.47974677795121645,0.47974677795121645,0.9935626724254759,-0.5212522297639679,0.0,0.9948822742780171,-0.4900526563448325,0.0,0.9737369347673858,-0.4920621044044582,0.002,0.8766650065029681,-0.5028563257196991,0.018,0.7261889042076527,-0.49612059907359846,0.05,0.3259812404667031,-0.4910172920390889,0.3,delta
"('F7', 'T3')",3.5672965990117375e-06,-0.4794292959199306,0.4794292959199306,0.95394867913194,-0.5504406232733623,0.006,0.9497567602570118,-0.5279608074497676,0.012,0.8854984964929203,-0.5367626869190509,0.018,0.7832005958781938,-0.5166264212536162,0.08,0.6644320546839142,-0.5091654226067339,0.138,0.3919652500544715,-0.5005063396768299,0.364,beta1
"('Fz', 'F4')",2.7921574145976694e-06,-0.47796468089954625,0.47796468089954625,0.9787928596409731,-0.5522468270485116,0.002,0.9640887384259765,-0.5169441231866487,0.004,0.8845865911069543,-0.5350867995898291,0.032,0.8030463453930732,-0.5097909383195707,0.056,0.6712107857738423,-0.5123097442328919,0.13,0.40893542091733587,-0.49246977717486395,0.3,beta2
"('Fp1', 'F7')",3.846974139206077e-06,-0.4741236838238308,0.4741236838238308,0.9748053513053646,-0.5128768927540468,0.002,0.9578317303611604,-0.48873700929164593,0.008,0.9112684350272411,-0.5131795588407142,0.014,0.8240899275964187,-0.4998827780053738,0.052,0.7069022775872853,-0.48823391589846155,0.114,0.3686114124500753,-0.490465074036399,0.314,gamma
"('Fp2', 'F7')",0.00015968196640010963,-0.46863954119108603,0.46863954119108603,0.993804806097179,-0.4359803820087216,0.0,0.9814520822747649,-0.43710125902854646,0.004,0.9590388656458925,-0.4443567896250846,0.004,0.9215679429906254,-0.42655623737868514,0.006,0.852667911575396,-0.42266263756087813,0.034,0.6460517892432971,-0.4235192349291342,0.106,alpha1
"('F4', 'T4')",7.248170271430112e-06,-0.4672551186740905,0.4672551186740905,0.9709275011778612,-0.5473957653242779,0.004,0.9577556800563308,-0.5086553532991457,0.01,0.9180155411841737,-0.5105128770846773,0.016,0.8391278273169932,-0.48496191283481127,0.052,0.7283825340257016,-0.4853967948682959,0.112,0.47273733202117935,-0.47277284333731195,0.272,beta1
"('T5', 'O1')",1.0860305003432632e-05,-0.46637530411683015,0.46637530411683015,0.9720445901241168,-0.5480651686601773,0.002,0.963268899541312,-0.5245587839349709,0.006,0.942687071077732,-0.5100216266027148,0.008,0.8541891854263148,-0.48859468400139067,0.038,0.7493035413536728,-0.48643839631729646,0.096,0.4325856023829593,-0.47939049245856624,0.26,beta2
"('Fp1', 'Fp2')",6.740337906879185e-06,-0.46600878501382903,0.46600878501382903,0.9797384940453072,-0.4996328293107443,0.0,0.9763228148566655,-0.47971665673264136,0.004,0.9313888373021646,-0.49184823356479995,0.008,0.8736081257373902,-0.48365843224474997,0.032,0.7357529334821763,-0.48016242170938367,0.074,0.47421260417792127,-0.4657164328106928,0.256,beta2
"('Fp1', 'F3')",1.6086021537792947e-06,-0.4647091087221056,0.4647091087221056,0.9955017684967393,-0.5344389484967097,0.0,0.994790897394474,-0.5140260640224092,0.0,0.976888967692655,-0.505856712694178,0.004,0.8856379631926694,-0.5044324544859659,0.008,0.7194659545789859,-0.49887745402262185,0.036,0.31164348333240555,-0.4940748576542685,0.294,delta
"('Fp2', 'Cz')",1.4613783479682455e-05,-0.4601916262549116,0.4601916262549116,0.9828215867921475,-0.49730433638848437,0.002,0.9727286014139198,-0.47985350646835734,0.006,0.9390928979794239,-0.48763472584070106,0.01,0.8508160872373071,-0.48376603436046106,0.038,0.7914802827813381,-0.46365514299882765,0.058,0.5112201210622487,-0.4563522079332594,0.228,alpha2
"('T5', 'O2')",2.0256601597755418e-05,0.46013400996517584,0.46013400996517584,0.9667708147739414,0.5042851030158199,0.006,0.9433110594083217,0.5022511115313071,0.01,0.9104919620780628,0.5002038810729907,0.02,0.8047749953251739,0.5002786810204903,0.078,0.7372998906290426,0.48018182181233054,0.12,0.4861191606159757,0.47069483351618624,0.266,alpha1
"('O2', 'Pz')",1.117770421769963e-05,0.4600414967026647,0.4600414967026647,0.9842251670450812,0.49749054424530464,0.002,0.9685262624248567,0.49577366930836037,0.002,0.9399998013279747,0.4873723131362534,0.006,0.8854688626472493,0.4760972314708911,0.018,0.7486324276444002,0.4800240184385196,0.07,0.4758176285029898,0.46929908994405467,0.214,delta
"('F4', 'T4')",1.0423299597623465e-05,-0.4580187275175465,0.4580187275175465,0.9697527498117767,-0.5308721209829953,0.006,0.9586695668638194,-0.48249255730294915,0.006,0.9076177144646196,-0.5055079899510126,0.012,0.8497171007381025,-0.4891449183885309,0.038,0.7428650775249044,-0.4757656371754969,0.114,0.49296003128762245,-0.46029604783692074,0.24,beta2
"('T3', 'T6')",3.5673728981454924e-06,-0.4550890338253636,0.4550890338253636,0.9786113855964179,-0.5245228036156192,0.006,0.9585490136077471,-0.5259281953950132,0.006,0.9256754463408321,-0.4987358647211599,0.01,0.8330631084984007,-0.4968693593025039,0.05,0.720070346462912,-0.485924925464756,0.096,0.4359659277046041,-0.4781762725459453,0.27,alpha2
"('O2', 'Cz')",1.8417988867489317e-05,0.4545536727820543,0.4545536727820543,0.9716233747419905,0.5207304061728261,0.002,0.9612469440908473,0.4937607678010837,0.002,0.9245253274047032,0.5060384549531413,0.014,0.8181392473057053,0.4958796601711674,0.048,0.7127951513769191,0.48387486735630864,0.114,0.5038853269424104,0.4692103795372004,0.262,alpha1
"('F3', 'T3')",2.0731919476349126e-05,-0.4528443301969906,0.4528443301969906,0.9693837025029449,-0.529481959324774,0.002,0.9470421298765221,-0.4965522934029782,0.008,0.9136725327663364,-0.49375024335885376,0.018,0.8459674239463963,-0.4810498151666664,0.06,0.7485229083150734,-0.4713678447858828,0.108,0.5108726990272605,-0.4636494643470483,0.252,beta1
"('Fp1', 'Fz')",4.3526292710000276e-06,-0.4507146390294192,0.4507146390294192,0.9877586625281323,-0.5038396991668483,0.0,0.9859624311867443,-0.4817943272867206,0.0,0.9718660435477868,-0.48631427730839544,0.0,0.89859022855192,-0.48190726762241276,0.018,0.7754608218738017,-0.473747522771616,0.048,0.41544540886939596,-0.4719856082590742,0.258,theta
"('F7', 'F3')",7.258689047054572e-05,-0.44937706315251963,0.44937706315251963,0.9925256568392347,-0.48196829299402216,0.002,0.9843639158418955,-0.47255007455059184,0.002,0.9775265071058326,-0.4585788664780277,0.002,0.9530151613709491,-0.4516351920056846,0.008,0.850702229060006,-0.4525279113583352,0.024,0.6270788988267502,-0.43619589071736103,0.096,theta
"('T4', 'C4')",8.298693024868182e-06,-0.44922164325559544,0.44922164325559544,0.9786820569141258,-0.5342044689624473,0.004,0.967425542908745,-0.491951095197152,0.002,0.9199888695788904,-0.5066761868621942,0.01,0.8261804531899821,-0.48712934607638114,0.04,0.753057411894052,-0.4741283884584791,0.088,0.491427733216454,-0.4673727433413996,0.27,beta1
"('Fp1', 'C3')",2.2115346702890532e-05,-0.44915043692437423,0.44915043692437423,0.9966843296614227,-0.4693098829624741,0.0,0.991055533202656,-0.4572967750023931,0.0,0.9768031547561279,-0.46874765575713784,0.002,0.9247152862571449,-0.45516909433207164,0.014,0.8192263919833133,-0.450801530534152,0.028,0.5204063313573077,-0.4527440890074916,0.154,theta
"('F3', 'F4')",2.9697459192404804e-05,-0.44863644260932417,0.44863644260932417,0.9811795365149233,-0.5043528871502435,0.002,0.9695907479892715,-0.47348161327870975,0.008,0.9446239669780753,-0.4729819820032825,0.004,0.8821065483757056,-0.46710768965753663,0.036,0.7715065068712708,-0.46497793915376634,0.062,0.5183354518104127,-0.4561825239048961,0.206,beta1
"('T6', 'C4')",2.25670673089271e-05,0.4474549347195033,0.4474549347195033,0.9812256996662589,0.5030999900344483,0.0,0.9658032663136056,0.493756667228339,0.004,0.9142369652505095,0.49320177688212663,0.01,0.8638288128823572,0.48025508557214236,0.04,0.7322179347641732,0.4767848517065885,0.092,0.5096161335311435,0.46180780316352915,0.212,alpha1
"('F7', 'C4')",3.483393041620478e-05,-0.44693904037085563,0.44693904037085563,0.9886812261580549,-0.48118690771230777,0.004,0.9753294138478169,-0.4612142178012459,0.004,0.9641491352306256,-0.45868718387690366,0.008,0.8901248362804158,-0.4629423886320388,0.018,0.7986823646314877,-0.45576009486369606,0.06,0.5539062641587622,-0.4449161461550855,0.176,alpha2
"('F3', 'Cz')",0.0003803867612151212,-0.4463637379584746,0.4463637379584746,0.9904562938642577,-0.4434765621417721,0.002,0.9832776568691758,-0.4274906131508572,0.0,0.9761060604123168,-0.4263053439274857,0.0,0.9309823178352249,-0.42421818772233044,0.014,0.8712291682985034,-0.41965217207936995,0.034,0.6773920107699835,-0.41335356063069023,0.106,beta2
"('F7', 'Fz')",0.000524827326106412,-0.44540183995019184,0.44540183995019184,0.9934138808017117,-0.4300948388965928,0.0,0.9856219212161494,-0.41395744632854,0.0,0.9785299532817847,-0.4216485157848689,0.004,0.9421400610776963,-0.4098543302154107,0.012,0.8792418759605616,-0.4050289490068465,0.028,0.7375001367615296,-0.39902606296946536,0.054,theta
"('O1', 'O2')",1.6460829888070796e-06,0.4449382721312796,0.4449382721312796,0.9331819313080059,0.5802371612684024,0.016,0.905626336863494,0.5511838323607235,0.024,0.8792253478729419,0.5438308501345089,0.042,0.7587296664546896,0.5441533936077885,0.116,0.6542198437571837,0.5096724498755644,0.168,0.3640341384075614,0.5068756548037059,0.342,delta
"('F4', 'T5')",1.063434476783825e-05,-0.44455010760475994,0.44455010760475994,0.9764787860130404,-0.5300238035611954,0.0,0.968660989598565,-0.4950388382723729,0.004,0.9475574183735602,-0.4882469216488678,0.006,0.8453495314532903,-0.4862108501166752,0.04,0.7374274564237858,-0.4718949704907937,0.092,0.4738635177907971,-0.4626267776420071,0.22,alpha2
"('T4', 'P4')",6.666794359045051e-06,-0.4443881171838743,0.4443881171838743,0.9511892132588262,-0.5431417208754765,0.006,0.922931115639603,-0.5081349535134808,0.012,0.8674323876423071,-0.5285117767117969,0.028,0.8002390175698669,-0.5086844305465533,0.09,0.7342969721191597,-0.4840685275403815,0.108,0.47699744546298406,-0.4729347501722448,0.282,beta2
"('F7', 'C3')",8.982213108877843e-05,-0.4443389339205722,0.4443389339205722,0.9868140739218163,-0.4412343969773723,0.0,0.9866213588533961,-0.45250024170553854,0.0,0.9675509589742283,-0.4518496445222029,0.004,0.9314550670965906,-0.4315014856780932,0.01,0.8690744819383047,-0.42363643364795395,0.028,0.6182975629340339,-0.4245882857233248,0.102,alpha1
"('Fp2', 'F4')",0.0006773315564558198,-0.4434697719893702,0.4434697719893702,0.9911269100233802,-0.4655433553286055,0.0,0.9757265119947247,-0.4661970556096825,0.002,0.9729499006387575,-0.4317456595858092,0.004,0.9145745040806047,-0.43361442112123727,0.018,0.8369829072007365,-0.42284767795413686,0.036,0.7052728927818526,-0.41008883599781265,0.104,theta
"('Fp2', 'T5')",3.973934836810616e-05,-0.4412083146107498,0.4412083146107498,0.9634303642798613,-0.5436275648774606,0.006,0.9422929458709123,-0.49227867557770166,0.01,0.9353015259195941,-0.4777026008285,0.02,0.8664501194928588,-0.4641283374092676,0.04,0.7846389124032931,-0.4573454660015713,0.078,0.5607792467044667,-0.4508590843338354,0.192,alpha2
"('Fp1', 'F4')",2.1964805345616897e-05,-0.4408330560387904,0.4408330560387904,0.9930887362966446,-0.49577775731423285,0.0,0.9776615287509063,-0.47979912773264166,0.0,0.9742721565522823,-0.4659729322818437,0.006,0.9030599404207352,-0.4676372600906453,0.014,0.8049347417657255,-0.45471021011558366,0.052,0.5164225905949669,-0.4530000895698708,0.17,theta
"('F4', 'F8')",2.4949031105652733e-05,-0.44055508203362814,0.44055508203362814,0.956768093129632,-0.5448841782207191,0.008,0.9344457934262418,-0.514526510492674,0.012,0.8549509906939716,-0.5351468836945706,0.038,0.7888450217758228,-0.5022779080638421,0.084,0.7146781125024174,-0.4880114433280881,0.15,0.540313440912486,-0.46962666756249105,0.252,alpha1
"('P3', 'Pz')",5.020409849055885e-05,-0.43973062346550884,0.43973062346550884,0.9707180454593793,-0.5228588539153975,0.002,0.9556714666172298,-0.5008718283216079,0.012,0.9443939194387709,-0.4737942803922739,0.01,0.871110828038704,-0.4671000635683095,0.03,0.7706503774437676,-0.4555115213723957,0.082,0.5817827130103945,-0.45004704419852143,0.214,alpha2
"('F7', 'Cz')",1.5573108928003636e-05,-0.4380267922371946,0.4380267922371946,0.9863446355576494,-0.5012610427671322,0.0,0.9562547419474619,-0.4776742759170501,0.008,0.9218829326698389,-0.4873900473286446,0.01,0.8723761780999523,-0.4692417286783077,0.034,0.7819613335841882,-0.46616844818743025,0.084,0.5039472416475372,-0.45833449647408403,0.228,alpha1
"('Fp1', 'Cz')",1.2456578604789539e-05,-0.43732236831320365,0.43732236831320365,0.9845665632937213,-0.5199109495101989,0.0,0.984639362983322,-0.482541398923191,0.0,0.9422659835404803,-0.48860993615002773,0.006,0.8804609018778256,-0.47008252880590334,0.034,0.7494686664164045,-0.4738448705186644,0.066,0.4696561571247139,-0.46447952871818693,0.232,alpha1
"('T4', 'Cz')",2.4746432480219913e-05,-0.43667715126111223,0.43667715126111223,0.9739924975691655,-0.5289781322416283,0.006,0.9717721317862335,-0.48226309988307986,0.004,0.9319573713464052,-0.4832234879630782,0.012,0.8700948572245194,-0.47726514179475105,0.036,0.7724670082069497,-0.4640461398633359,0.076,0.5272072537348699,-0.4526639849097259,0.206,alpha2
"('F3', 'C3')",9.146830473481925e-05,-0.4365483685428269,0.4365483685428269,0.9905823644901299,-0.4721436115893978,0.002,0.9837260732868511,-0.45744670812429244,0.002,0.9696365037207265,-0.46317194391749356,0.004,0.9151499420922187,-0.45429615826623054,0.02,0.8476919307411542,-0.4394403417457835,0.026,0.5960783151444905,-0.4339650367072432,0.164,alpha2
"('F3', 'Fz')",0.0001525211220232288,-0.434655257054652,0.434655257054652,0.9909283123258036,-0.44721740372644914,0.0,0.9925557779657388,-0.4395702670247908,0.0,0.9679762175974638,-0.44059702334720663,0.002,0.9225814960109175,-0.4343825114726359,0.008,0.8580255347326298,-0.4318780781596764,0.03,0.6255852275099059,-0.42392342761334323,0.112,beta2
"('Fz', 'C4')",0.0007989958820367812,-0.4328618375757262,0.4328618375757262,0.9738725739482029,-0.467867181986457,0.004,0.9675061146361291,-0.43726369958839784,0.008,0.9584578986081073,-0.42893324141106826,0.008,0.8909208490790768,-0.42952554410443433,0.044,0.8558192962554776,-0.4095455792245326,0.046,0.7082653537706579,-0.4027593451616329,0.096,alpha2
"('Fz', 'O2')",3.963746598680671e-06,-0.43277998376761423,0.43277998376761423,0.9875559459636716,-0.5218883359029087,0.002,0.9558627768396124,-0.5155009959741755,0.002,0.9304039568316459,-0.49382537551312283,0.004,0.8177733659722869,-0.4973140147888642,0.044,0.7307165674418975,-0.48502383121953613,0.088,0.4374034111911292,-0.47389755198314815,0.264,alpha2
"('T4', 'C4')",0.0002546868402255331,-0.43120513237615776,0.43120513237615776,0.9930772962467047,-0.4580817155788869,0.0,0.9918508749301747,-0.4285298053573613,0.002,0.982164146125685,-0.44965575437177524,0.006,0.950152150583899,-0.430691651856248,0.006,0.8952421791500692,-0.42522911080560716,0.012,0.7133242487891018,-0.4117232174448143,0.052,alpha1
"('F4', 'T3')",2.4607791242067533e-05,-0.4306956872039228,0.4306956872039228,0.9770671474960821,-0.506084935830703,0.006,0.9692797661778549,-0.487996820540983,0.006,0.9516591289800163,-0.46664035996487135,0.012,0.8593856062018282,-0.47087933281259126,0.042,0.7675304168225846,-0.46399192927817823,0.072,0.5150188709245609,-0.45823326867097103,0.22,alpha2
"('O1', 'O2')",0.0002321451997562279,0.4292988168596862,0.4292988168596862,0.9673028909300424,0.5030349681475552,0.002,0.9571062750108568,0.4794439807800713,0.012,0.9220244016563296,0.475315666005796,0.018,0.8524611547750598,0.4653976155089123,0.054,0.8040683440290545,0.42997481494717077,0.082,0.6388035286635388,0.4367040028398606,0.184,theta
"('Fp1', 'C3')",9.898007770348276e-05,-0.4291917302404248,0.4291917302404248,0.9874312849518173,-0.4832736084633047,0.002,0.9685762495559033,-0.4677086224137303,0.006,0.947549894342555,-0.4601572627247046,0.006,0.878548435907921,-0.4601943937826404,0.038,0.7777915275108501,-0.4490364585910298,0.076,0.5623094313022203,-0.44323209698991634,0.192,alpha2
"('F3', 'Cz')",0.0009818094426647128,-0.4246318868096536,0.4246318868096536,0.9889068932681573,-0.44869925926339543,0.002,0.9842277808531071,-0.4102135949759999,0.002,0.9757137300078,-0.4140189574946866,0.004,0.932994493372356,-0.40449902656871534,0.014,0.888789365539764,-0.4036042734357995,0.012,0.7403813858593091,-0.39577763217141176,0.076,alpha1
"('O1', 'C4')",0.0006357461170882705,0.4245460757179583,0.4245460757179583,0.9790724573820685,0.4413520852199259,0.002,0.981995252457776,0.4201323071409309,0.0,0.9655328208912866,0.42072435224136717,0.006,0.8964908887929067,0.4362467352577015,0.024,0.8744303198787773,0.4134098888169785,0.032,0.7022080956897309,0.4048312967641954,0.11,alpha1
"('F4', 'O2')",0.0004949043697466195,-0.4237628464002188,0.4237628464002188,0.9873229420357867,-0.4535506682733385,0.0,0.9705668987002497,-0.44558224133262636,0.006,0.969826164273972,-0.42445179426948726,0.01,0.9298022713532127,-0.4262192443765721,0.008,0.8655873587264475,-0.41522115900603584,0.05,0.7206140404639438,-0.40488912705877933,0.1,alpha2
"('Fp1', 'Cz')",3.686285698414325e-05,-0.4226685899334486,0.4226685899334486,0.9736620138771176,-0.4856529559092721,0.008,0.9645250168008966,-0.46314051017347496,0.004,0.9454643441725642,-0.46614281087275744,0.008,0.8968019867738986,-0.45458688430522415,0.032,0.7978088326496376,-0.46003411217281576,0.076,0.5337036557971648,-0.4479381596906834,0.196,beta2
"('O2', 'P3')",0.00016829088788387117,0.42266798405452644,0.42266798405452644,0.993291069499166,0.4438278344451454,0.0,0.9805457808041489,0.46115736311341254,0.0,0.9736306409070768,0.44188180960684625,0.006,0.9265718082828999,0.4376238151916543,0.006,0.8664324288610193,0.42468606798857994,0.02,0.6488609523806353,0.41712841378795,0.084,delta
"('T6', 'P3')",0.0005431051215379736,0.421952387250551,0.421952387250551,0.9829256292683106,0.46155372330808114,0.0,0.9559043396109638,0.48705004729094437,0.012,0.924116532389663,0.4703559395436168,0.012,0.8865623733642005,0.4460406188304559,0.034,0.8025230082803598,0.43667590949933077,0.072,0.6611979128927991,0.4185028381709042,0.134,alpha1
"('F4', 'T4')",5.263868975082993e-05,-0.42078368197606253,0.42078368197606253,0.9623759295696682,-0.531224653317224,0.01,0.9567083455431092,-0.48703594593568256,0.008,0.9473635687862756,-0.47753014611514355,0.008,0.8520609888278545,-0.47112752511606726,0.05,0.7832896611248765,-0.46209483932144585,0.072,0.5483339308529833,-0.4486468843031514,0.224,alpha2
"('F3', 'C3')",2.0930676497564243e-05,-0.4194051820167509,0.4194051820167509,0.9982793445171768,-0.4637924185883437,0.0,0.9881705621412431,-0.4559564562842692,0.0,0.9718259536671746,-0.4804278325192808,0.006,0.9177430426481534,-0.46078767667441084,0.004,0.8201251137188301,-0.4568460480422828,0.03,0.4933568439718166,-0.4542083718238656,0.174,beta2
"('Fp1', 'C4')",0.00023181630389644626,-0.41809654888592307,0.41809654888592307,0.9910782834633161,-0.4433405238095124,0.002,0.990115075264071,-0.42549421621969247,0.002,0.9621369858910785,-0.44108646210878194,0.0,0.9209481383790763,-0.4214546206513608,0.01,0.8492873946956282,-0.41823473897621305,0.044,0.6660109460730044,-0.4133150660391998,0.106,beta1
"('Fp1', 'F3')",0.00034983809551630975,-0.41731981662929457,0.41731981662929457,0.9860647797308326,-0.45087386056061396,0.0,0.9715201731927022,-0.44328200807181783,0.0,0.9686245511222862,-0.4376083504012416,0.006,0.9144557219179664,-0.4299497129896962,0.022,0.8674736990679289,-0.41241937719480515,0.046,0.6895133621592237,-0.41155795549441454,0.12,gamma
"('F4', 'C3')",6.521655190199445e-05,-0.41718478330427067,0.41718478330427067,0.9801440811784239,-0.4914068163527474,0.002,0.9751474426229971,-0.4475963355768656,0.0,0.9577393049645687,-0.4652369829529045,0.004,0.9156177086168126,-0.4366640029893483,0.016,0.8243130995822471,-0.4456357253189697,0.034,0.5782469479755239,-0.4424112325924658,0.17,beta1
"('Fz', 'Cz')",3.13475014506027e-05,-0.4155206037239722,0.4155206037239722,0.9739817790882357,-0.5457327331258136,0.002,0.9474586576625578,-0.508363582597698,0.01,0.9026981105944468,-0.5157892711220422,0.022,0.8182977177999127,-0.48065990118061297,0.032,0.6919700490458798,-0.4952221313627083,0.14,0.5229652859591879,-0.4658229438347475,0.296,beta1
"('F4', 'F8')",0.00013053382674875518,-0.41514467184508747,0.41514467184508747,0.9861441774183709,-0.46212402322267876,0.0,0.9859928847496156,-0.44002848183107135,0.0,0.967140600770014,-0.4456174372496771,0.004,0.9174895315216873,-0.43944352444835866,0.008,0.8563051539354894,-0.4253441023167641,0.026,0.5899655397770841,-0.42962461503066574,0.154,gamma
"('O2', 'C4')",0.0007423907659980279,0.41463664774926967,0.41463664774926967,0.9883740175352886,0.43343142145271213,0.0,0.9844456374134808,0.4092827054442024,0.002,0.9734401053981848,0.4168929860762616,0.002,0.92248931698292,0.41755136358742756,0.02,0.8785759099187657,0.40740745237460413,0.036,0.7386671969705153,0.39612294922754826,0.076,alpha1
"('Fz', 'F8')",0.00013790556933237512,-0.413903306405701,0.413903306405701,0.9751804050813732,-0.5089370796914175,0.004,0.9720449811191042,-0.4572077643849111,0.004,0.9009757794298395,-0.5028018942599136,0.018,0.8604982488720861,-0.4638169771213699,0.046,0.756528374161692,-0.45722857800584255,0.108,0.6351157889067583,-0.42907719128772803,0.156,alpha1
"('F7', 'C3')",5.86338321742115e-05,-0.4136673000174406,0.4136673000174406,0.9901187630741679,-0.4782339719309818,0.002,0.9854976512884346,-0.44540707687670267,0.002,0.9578170922594526,-0.4717867157268752,0.006,0.9083094954213756,-0.4498933505816035,0.01,0.8272722767460021,-0.44043126662820603,0.044,0.5870349446052073,-0.4385796859648979,0.16,beta1
"('F7', 'T3')",9.08374494329528e-05,-0.41349920004419294,0.41349920004419294,0.9739594657669765,-0.4933560840288207,0.004,0.9686313248073206,-0.4700060640898023,0.004,0.9300302952011744,-0.46970787060018837,0.014,0.8760928063385,-0.4668000867513151,0.038,0.7978432652306192,-0.4479725929906563,0.066,0.5863524290474409,-0.44155988415974545,0.176,beta2
"('Fz', 'F4')",0.0015165878814373172,-0.41150826030344606,0.41150826030344606,0.9896690943116928,-0.40850939021894556,0.002,0.9862474561035232,-0.39158707555995914,0.002,0.9736713568814382,-0.3971926536424726,0.008,0.9488373295823919,-0.3793473567430245,0.008,0.8853379007578484,-0.3917295345095258,0.028,0.7888885672259751,-0.37555055421941846,0.058,theta
"('F3', 'Fz')",0.00035574844066821624,-0.41119476448332765,0.41119476448332765,0.9855184982141897,-0.44485538406803093,0.004,0.9798941495650351,-0.43790101551666566,0.002,0.9704195713873531,-0.4277757099078022,0.006,0.9324050622512623,-0.4176713877445705,0.014,0.8668775631126749,-0.41583354250328325,0.03,0.6962507808412872,-0.4069594685900684,0.112,theta
"('O1', 'Cz')",0.0002481322049667102,0.410317464849137,0.410317464849137,0.9833052975159213,0.44985931471674045,0.0,0.9739678271510791,0.44314157089308265,0.002,0.9601973343135717,0.4378294965211785,0.006,0.8936005694800653,0.4520860415815379,0.02,0.850624921371853,0.42953191857274703,0.044,0.673640411010456,0.4141360462446575,0.13,alpha1
"('T5', 'O1')",0.0003228301623324117,-0.41008049102575284,0.41008049102575284,0.9976317080727294,-0.44939255016774565,0.0,0.9865493607601493,-0.4434227018833021,0.0,0.9859397066500258,-0.4284093549066805,0.0,0.9323759015625939,-0.41940700474751336,0.016,0.8716807345972313,-0.41311618915919945,0.026,0.6951613730822014,-0.41510405395554334,0.1,gamma
"('T3', 'P3')",0.001172379388808737,-0.40973444376073587,0.40973444376073587,0.9728189412040191,-0.4596506942353913,0.004,0.9738150749484827,-0.42143345627554973,0.002,0.9634548503192198,-0.42706197054851514,0.008,0.91638566992911,-0.42109299201613615,0.016,0.8585868326459218,-0.40553430641834565,0.026,0.7433128852652333,-0.39448468243272866,0.074,beta2
"('Fp1', 'C3')",6.66612253900164e-05,-0.40860302494481066,0.40860302494481066,0.9817155493636501,-0.4704861839304187,0.002,0.9730328509454915,-0.4660613299589236,0.002,0.9477330897873314,-0.4600906725561312,0.008,0.9034451045335746,-0.45337212356999285,0.038,0.8016339185624242,-0.4452342796088036,0.06,0.577743175309473,-0.4423708393739548,0.162,beta2
"('Fp2', 'F8')",0.0003861440061840394,-0.4082889158376529,0.4082889158376529,0.9815674063555628,-0.45969160219334815,0.002,0.9930716086588254,-0.4268592537513282,0.0,0.9637211050865415,-0.4254504890624636,0.004,0.9415902799490876,-0.422283249171236,0.004,0.8676140247362509,-0.41580492902398397,0.026,0.6905810703282523,-0.40889048573791204,0.114,beta1
"('T3', 'O2')",0.002058885336519517,-0.4080249574566192,0.4080249574566192,0.9875546932918903,-0.4165476893725373,0.002,0.9848923740005905,-0.40137088331918924,0.004,0.9835088101161753,-0.3894056041373356,0.0,0.9470714690948573,-0.389620061894311,0.01,0.915277372685154,-0.3751841344609383,0.016,0.7836648661063732,-0.3774817467049113,0.058,alpha2
"('O1', 'O2')",0.00012807264334108853,0.40796575517842315,0.40796575517842315,0.986953991317807,0.46636851858324696,0.0,0.979247904131546,0.44626817185751355,0.008,0.9565743452213503,0.4529463025011959,0.006,0.9117288139787209,0.44898306696938506,0.018,0.8349920611304944,0.4302884687585142,0.046,0.6371386366512548,0.42614203887140223,0.122,beta2
"('Fp1', 'F7')",0.003509521366212762,-0.4075505818745639,0.4075505818745639,0.9988671345072649,-0.3792018256951087,0.0,0.9936154397038041,-0.3923444209150394,0.0,0.9806077788328567,-0.399092636863792,0.002,0.9801405683174139,-0.3850868086915623,0.002,0.9367002853296967,-0.3797072983907285,0.006,0.8226562218224835,-0.37015441609780453,0.028,theta
"('O2', 'Cz')",0.00011818395705785662,0.4068215442346651,0.4068215442346651,0.9675788997497764,0.48432126466668063,0.006,0.9638169207229874,0.47253299241762475,0.014,0.9281714931704816,0.48225251368318267,0.02,0.8692221909065616,0.4635800686785955,0.04,0.7935353340177989,0.4409395284509894,0.068,0.6135374865068096,0.43708988479899635,0.166,beta2
"('Fz', 'C3')",6.193727879808712e-05,-0.4059679940682844,0.4059679940682844,0.9862690639504141,-0.4786734592090585,0.0,0.9685273874883402,-0.47283082665655984,0.004,0.9387716837728843,-0.4653286248998961,0.01,0.8766823328092607,-0.45607511882874535,0.036,0.7919084728926808,-0.44685140303305854,0.082,0.5651097046610674,-0.4409028180026898,0.202,alpha2
"('Fz', 'T4')",5.6287818170136524e-05,-0.4057409714098835,0.4057409714098835,0.9796679151193299,-0.5040993779420533,0.004,0.9764870029734398,-0.45312681307369407,0.002,0.9545693732860165,-0.4598767761923088,0.008,0.8715984703569507,-0.4646610720357942,0.026,0.8010891088460222,-0.44611507071865086,0.052,0.5774989021059987,-0.4383761551419601,0.17,alpha2
"('F7', 'F4')",8.286636414936426e-05,-0.404956854050635,0.404956854050635,0.9684515221812093,-0.5043572798419602,0.004,0.9438532914449751,-0.4798320505082941,0.014,0.9219691528353527,-0.4668294383224396,0.026,0.8751350745785228,-0.4467762415988465,0.024,0.8205320832164594,-0.44748605141808107,0.07,0.5910560020978748,-0.43885851800417036,0.148,alpha1
"('Fp2', 'F4')",0.00022378766300080715,-0.40196663324951476,0.40196663324951476,0.9972692328425727,-0.4685428520281215,0.0,0.9938963417383052,-0.4411318280010727,0.0,0.978932962704466,-0.42551480402827707,0.002,0.9382250032938656,-0.4343944027342501,0.012,0.8607824931538836,-0.4233517631446102,0.022,0.6781348190258432,-0.41472829242216175,0.102,delta
"('Fp2', 'F3')",0.0012899025240890288,-0.40137123759318644,0.40137123759318644,0.9877015381809003,-0.41575400673092217,0.0,0.9821960629287388,-0.4170036960943847,0.0,0.9523576489597874,-0.4247848730209013,0.012,0.9291228009836684,-0.40561640001625116,0.022,0.8839007154202311,-0.39843942584085,0.03,0.7503071035556307,-0.3863811944986301,0.088,beta2
"('F8', 'C3')",0.00013384199902035962,0.40082795665712156,0.40082795665712156,0.9951986513034259,0.44714624407799103,0.0,0.9805729534663159,0.43791109020173996,0.004,0.9621008412257851,0.44473201401682483,0.008,0.9071724452320561,0.4329803228297822,0.016,0.8406991220848483,0.4278761070952052,0.038,0.6224525586163318,0.42463591838872444,0.156,gamma
"('F3', 'C3')",0.0001038268683947614,-0.3994948003616185,0.3994948003616185,0.9989793546552942,-0.462773686321902,0.0,0.9918232942228791,-0.4567809836405543,0.002,0.983361867886594,-0.4637763144220829,0.0,0.940950284156252,-0.4453691392828157,0.004,0.8657699783176388,-0.44543758336714484,0.022,0.6219021258927147,-0.43273115351063357,0.086,delta
"('Fz', 'F8')",0.0002484608825569793,-0.3978094813580435,0.3978094813580435,0.9830996570201377,-0.4684335773918854,0.004,0.9791479698886071,-0.4329989200508981,0.002,0.9404382805436747,-0.4636700881719912,0.012,0.916583201976545,-0.43289558971023806,0.024,0.8295642853885487,-0.42741006920918295,0.044,0.6430470804956949,-0.4212083837671895,0.15,beta1
"('Fz', 'C3')",0.0009432500526487119,-0.39687278488791317,0.39687278488791317,0.9923077984193571,-0.43964979121713493,0.0,0.983502226694872,-0.42035203333030563,0.0,0.9738868781397554,-0.42817163350854875,0.0,0.9504453800454759,-0.4037426892791918,0.002,0.8910594904378968,-0.40084737121851355,0.022,0.7055671957780213,-0.4004996779844429,0.088,beta1
"('Fp1', 'T3')",0.0001886029391097023,-0.39671605086108724,0.39671605086108724,0.9944336205086813,-0.4435466047034664,0.0,0.9868263930724847,-0.4430421485776379,0.0,0.9539572466093007,-0.45296396968780145,0.006,0.9350038809400151,-0.42723027663218666,0.006,0.8366237703338532,-0.4273771558970281,0.044,0.6526473846769327,-0.42431725070641735,0.11,alpha1
"('Fp1', 'C4')",0.0005268293146593196,-0.3964079849193073,0.3964079849193073,0.9940954107255684,-0.4234454542474927,0.0,0.9917659171940488,-0.40115260966071975,0.0,0.9839561566915349,-0.4144933537341614,0.0,0.9497911555267508,-0.40769413192144655,0.01,0.9096218680331154,-0.40050699576708093,0.012,0.7275714462492207,-0.3993340482840521,0.078,theta
"('O2', 'C3')",9.670287676074746e-05,0.39629224476619573,0.39629224476619573,0.9761195374299785,0.4681246219333167,0.002,0.9648609660428462,0.46745978182465353,0.008,0.9312255437535283,0.47802829828480725,0.01,0.8578597091788662,0.46627228181604125,0.038,0.8041578060674782,0.4333132163240709,0.056,0.6194777806500679,0.4343230214097162,0.184,beta2
"('F4', 'Cz')",0.001092667299432077,-0.3960695741475009,0.3960695741475009,0.9889886690969563,-0.4592520565355416,0.002,0.9808472729325014,-0.40837575568972323,0.002,0.9627174562353948,-0.4419383545650259,0.004,0.9337072262327555,-0.4089054229926316,0.022,0.8573935916569176,-0.4135264643175268,0.038,0.7291848892891454,-0.39728680259908894,0.114,alpha1
"('F4', 'C4')",0.002685127877098388,-0.39603745675200197,0.39603745675200197,0.9968912408264958,-0.4227790919121519,0.0,0.994124460918306,-0.3932488448724343,0.0,0.9718259673227042,-0.41622197865936217,0.002,0.9475015264387256,-0.389903785569215,0.004,0.900215885523727,-0.39567556536494425,0.016,0.7871447842327095,-0.3761154132577628,0.068,beta2
"('F7', 'Fz')",5.2187270297083646e-05,-0.3943015644955701,0.3943015644955701,0.9955840782262052,-0.48197496357936753,0.0,0.9807551638475069,-0.4512326177224641,0.002,0.9657746152120431,-0.46646378210802597,0.006,0.9259007144937137,-0.4421672812692737,0.012,0.8259509228268066,-0.4395885888221349,0.04,0.5538283767040152,-0.44648959255513415,0.152,beta1
"('T4', 'C4')",0.0008531241429319072,-0.3935976774337867,0.3935976774337867,0.9961197229772374,-0.4281451446959723,0.002,0.9920437029982079,-0.41364325063315294,0.002,0.9939592106633968,-0.42645494940743334,0.0,0.9693345798718379,-0.40831072719708195,0.0,0.9358784990260026,-0.4017014389780386,0.006,0.8055461962845198,-0.3895489313091121,0.024,theta
"('Fp2', 'F3')",0.0003554288909426842,-0.3934645675885977,0.3934645675885977,0.9963862222327374,-0.4574621569373655,0.0,0.9911719542041735,-0.4406770759217419,0.0,0.9766534502575043,-0.43927285652604453,0.008,0.9392597597489721,-0.4269407705145687,0.008,0.8652679017040676,-0.418043783082329,0.02,0.7035945972713011,-0.40991875626447766,0.088,theta
"('F3', 'T3')",0.00018651020751386137,-0.39266937771375543,0.39266937771375543,0.9571985169174544,-0.5093168283997005,0.008,0.9496414470614839,-0.47166433750184633,0.016,0.9213336740959991,-0.4807179085465112,0.02,0.8511508059174206,-0.4722937727716945,0.05,0.7914864351666876,-0.45317346714431855,0.078,0.6331244808812075,-0.43480770135943775,0.152,beta2
"('Fp2', 'Cz')",0.0023131940731758076,-0.39220860656790063,0.39220860656790063,0.9970098595667591,-0.4193476555534423,0.0,0.9926816001427538,-0.37624367235003603,0.0,0.9780721461945452,-0.38747093339103567,0.0,0.9275060842866147,-0.39890453786463076,0.016,0.8984698612065103,-0.38632841382908795,0.026,0.7695823379224038,-0.3762542697224027,0.056,delta
"('T6', 'P4')",0.012665925594123722,-0.3921666361163565,0.3921666361163565,0.9983814248822974,-0.4070383890460955,0.0,0.9968629037233724,-0.3706633701340353,0.0,0.9874592231071045,-0.38840283460413794,0.0,0.9675341776008557,-0.3759112828107735,0.01,0.9554268948126853,-0.3622896218562761,0.004,0.8694300655307668,-0.3533035143421792,0.022,gamma
"('Fp2', 'C4')",0.0031762188598393527,-0.388555000390273,0.388555000390273,0.9928604332343048,-0.3886103169851351,0.0,0.9953619869857468,-0.37049943479597824,0.0,0.9871302530738674,-0.3702649142432019,0.002,0.9494819929851188,-0.3888224050691725,0.012,0.9204596378039042,-0.3782616074050322,0.018,0.808377430040455,-0.37069983795133943,0.044,delta
"('F7', 'F3')",0.0014554275025596014,-0.3867761438204237,0.3867761438204237,0.9881941629128859,-0.42503261554704863,0.004,0.9825690839490385,-0.39831408789460265,0.004,0.9794337971892106,-0.40918589731804395,0.004,0.9580695532270599,-0.397281616439233,0.006,0.891314441796612,-0.3933523785966763,0.016,0.7634971338504088,-0.3873181579953511,0.062,gamma
"('T5', 'P3')",0.002654395259238066,-0.3853441472106721,0.3853441472106721,0.9962458874401132,-0.4048523235050806,0.0,0.9938088789920793,-0.37817045255655624,0.0,0.9883842617904666,-0.3966179084599039,0.0,0.9634165609640687,-0.38144359769648223,0.0,0.9255246141302741,-0.37328240222474834,0.008,0.8174737141452075,-0.37283604234305684,0.022,gamma
"('Fp1', 'T3')",0.00015400260713408962,-0.3849787981057297,0.3849787981057297,0.9845681046608341,-0.44064301175252585,0.0,0.9707256462063696,-0.44834553763859103,0.004,0.9272928995604391,-0.45619085864825204,0.016,0.9152865392877427,-0.4344551526649393,0.018,0.7999296753072769,-0.4383077833696197,0.056,0.6243921325181995,-0.42781393577836835,0.156,theta
"('T3', 'P3')",0.0034154794344360534,-0.3822580072397097,0.3822580072397097,0.9836462763618055,-0.4259673123496346,0.002,0.9805827051471516,-0.3929436950606592,0.004,0.9757977753221726,-0.38447476870710484,0.002,0.9437181922705393,-0.3879880837043817,0.008,0.9049185270394405,-0.38780961483881055,0.026,0.8405691935767631,-0.3690573484638547,0.024,beta1
"('F4', 'T4')",0.00020553726694316386,-0.38164816045551253,0.38164816045551253,0.9749327424096662,-0.4820930681832392,0.002,0.9692657806000164,-0.4426890754446303,0.008,0.9603197331304492,-0.440533022037495,0.0,0.9007448520119121,-0.4462296562692344,0.026,0.8381742665989398,-0.4288861652457886,0.054,0.6807669941052337,-0.4165197831742621,0.106,gamma
"('Fp2', 'C3')",0.00011369053469386593,-0.38124678203147166,0.38124678203147166,0.9924340123468254,-0.4465913679833329,0.0,0.9914690578236615,-0.42211203112228884,0.0,0.9693048583175422,-0.4460436385340095,0.006,0.9056484225665932,-0.4337553800425732,0.018,0.8564998788155315,-0.4254712577375846,0.018,0.6327122372964246,-0.42391316943941154,0.124,delta
"('C3', 'Cz')",0.0007771105022541285,-0.3805116499291718,0.3805116499291718,0.9781522443396776,-0.4929994229949717,0.0,0.972705407721617,-0.4570613928927693,0.008,0.9618451426696383,-0.46004387049492307,0.008,0.9330861468978472,-0.43143504084804435,0.022,0.8846285951019299,-0.42131478471365696,0.032,0.685589272771765,-0.4170755746949993,0.094,beta1
"('Fz', 'O1')",0.005439843702041945,-0.37843195615095027,0.37843195615095027,0.9920006713831949,-0.40608705262499206,0.002,0.9910517210850249,-0.3865010622889032,0.0,0.9860519898431503,-0.3690328241055407,0.0,0.9575510167699455,-0.37831859121528016,0.008,0.9480468885667838,-0.36483266749404014,0.008,0.8467912971708321,-0.35367017916803895,0.036,alpha2
"('F7', 'T3')",0.0003629326509730625,-0.37695810963688325,0.37695810963688325,0.9844464554267031,-0.4386811803744832,0.002,0.9847646262343689,-0.43483490601977753,0.004,0.960988634927082,-0.4259926925041565,0.002,0.923756693330996,-0.42572579027797486,0.016,0.8551368611567874,-0.41190882149434266,0.03,0.6762748248893522,-0.41200197277164724,0.114,alpha2
"('F7', 'T6')",0.001126221265183828,-0.37620087017946696,0.37620087017946696,0.9872493546896794,-0.43749026307323613,0.002,0.9681848724253008,-0.425335094497525,0.004,0.9645474198553328,-0.409146924906695,0.008,0.92158470476353,-0.4088860028388461,0.016,0.8977537301381185,-0.39495162602486594,0.02,0.7583274370350491,-0.38630905098486357,0.076,beta1
"('Fp1', 'C4')",0.00385781285061013,-0.3761875679528147,0.3761875679528147,0.998185630034766,-0.40188606862120163,0.0,0.9968641603844128,-0.36597357921070206,0.0,0.9932896303173511,-0.37517347605597534,0.0,0.965416850475506,-0.36706388965437015,0.002,0.9468053681823465,-0.3655687557294297,0.014,0.828479086936761,-0.36783778779820836,0.024,alpha1
"('F3', 'F8')",0.00019875796668476892,-0.37493168518814096,0.37493168518814096,0.9890793059870788,-0.4597150090300333,0.0,0.9889655358450287,-0.4408969850917162,0.002,0.9528147467557588,-0.459357184521302,0.01,0.9201073529307287,-0.43244197321493094,0.008,0.8247646105845543,-0.42978484068628675,0.038,0.6659467118811564,-0.41866748687697247,0.126,alpha1
"('T6', 'O1')",0.002409601823073122,0.3749202911684694,0.3749202911684694,0.9889087804896608,0.4489818551982263,0.002,0.9676271752034766,0.4307156017159516,0.006,0.9585697413844505,0.42235575005272313,0.01,0.9211322695715323,0.4115676435954416,0.018,0.8476636608277885,0.4104715102516877,0.04,0.7471036765072929,0.39144375348006655,0.09,alpha1
"('T3', 'C4')",0.003390926399688491,-0.3716674501396312,0.3716674501396312,0.9901662626326032,-0.4347276535907105,0.0,0.9901298138342912,-0.4048367962047548,0.002,0.9680428062351578,-0.39833076742234175,0.002,0.9319974173166006,-0.4063233434157167,0.016,0.882525956457143,-0.3881959835859059,0.026,0.7617216615135581,-0.3799879389568661,0.09,alpha2
"('F4', 'C4')",0.00046128076854647353,-0.3715740307437612,0.3715740307437612,0.9821184980116467,-0.4605193650363875,0.0,0.9777747439454928,-0.435039716788388,0.002,0.9654000410019424,-0.4161083054112136,0.004,0.8936750030335735,-0.4371380940584758,0.022,0.8448275861544946,-0.4172397505113054,0.046,0.6619398403177209,-0.41281590943828106,0.142,alpha2
"('Fp1', 'T3')",0.0012277829355913901,-0.37133277583202295,0.37133277583202295,0.9886355519787003,-0.45509880972209055,0.0,0.9809573777416943,-0.4253512743446576,0.004,0.9617238506204319,-0.4285803595785892,0.004,0.9012643658403062,-0.4180001955803936,0.014,0.829370091777821,-0.4158365481033032,0.044,0.6812425619372251,-0.40449999986816415,0.122,delta
"('Fp2', 'F8')",0.009722921079854533,-0.3710414623150953,0.3710414623150953,0.9878212737736056,-0.42977506478309707,0.0,0.9926189985294307,-0.39487192449551506,0.0,0.9603495622703895,-0.40960306779167044,0.006,0.9456354561056516,-0.39263081763052715,0.01,0.8931251246633909,-0.3755810667885483,0.03,0.8204618157595129,-0.36403129597683376,0.044,alpha1
"('Fp1', 'Cz')",0.0053233085043033115,-0.370362702221035,0.370362702221035,0.9964006816118383,-0.4089771410065264,0.0,0.9958228328434099,-0.37223170853056275,0.0,0.9787166475048003,-0.3777070727149311,0.004,0.9372906530939529,-0.38887257999338287,0.012,0.922193832802153,-0.371456668280261,0.008,0.7988388039880313,-0.36803790353217947,0.054,delta
"('Fp1', 'T5')",0.003431908014708917,-0.3692145199974236,0.3692145199974236,0.9878337067495265,-0.43558604898097014,0.002,0.9759242299544597,-0.41375460896293664,0.002,0.967127328066628,-0.40415387059693164,0.008,0.9533195207262048,-0.3868530941826942,0.012,0.8993163745545691,-0.3813838994140785,0.038,0.7924791041779468,-0.3742851076237721,0.062,alpha2
"('F8', 'T4')",0.0008239968634918609,-0.3690402550421622,0.3690402550421622,0.9962972376164833,-0.4419749824400093,0.0,0.9906896573163745,-0.4033783264375428,0.0,0.9864893158259612,-0.41446164635371396,0.0,0.9389031968324185,-0.3967199579029755,0.012,0.8864375945935825,-0.4045317841157181,0.024,0.7346219655178796,-0.39096892138530015,0.066,beta1
"('O2', 'P3')",0.0003191647869558918,0.3683972536777371,0.3683972536777371,0.9785606121289553,0.46792698933852483,0.0,0.9594692753380951,0.4750766874893874,0.004,0.9202236298994928,0.4615158997526566,0.008,0.8729291897220077,0.4544036760759537,0.03,0.828347445135355,0.42386263200979435,0.064,0.6495609706915765,0.4266554909575313,0.148,beta2
"('T6', 'Cz')",0.018991410351080484,0.3682268109248875,0.3682268109248875,0.9872668501720024,0.40356873020778167,0.004,0.9796424364721187,0.38951263595788094,0.0,0.9645520344791187,0.3981653566289977,0.006,0.9465044112974087,0.3644322568717069,0.012,0.90018139818788,0.3702432330587293,0.034,0.835885040436175,0.3505756058610071,0.058,alpha1
"('T3', 'C3')",0.0026992492125707075,-0.367580882426599,0.367580882426599,0.9847858101921779,-0.43561377186277195,0.0,0.9822811400562232,-0.41211395228822517,0.002,0.9641313881480468,-0.4177952219134041,0.006,0.9182107048278222,-0.4079372166223402,0.022,0.8771585533484837,-0.3954132898259338,0.026,0.7831235606315499,-0.3817574894791218,0.074,beta2
"('F4', 'Pz')",0.0006097629089554408,-0.36577229551278034,0.36577229551278034,0.991400401418606,-0.4395812555264673,0.0,0.9865887283983781,-0.4161499243471197,0.0,0.9617107064657401,-0.42505219797190125,0.002,0.9318599119847742,-0.4095268238760239,0.008,0.8802467713998667,-0.4060335994232304,0.026,0.7175380948538652,-0.4017156974288576,0.102,alpha2
"('T6', 'O2')",0.0025561887013184083,-0.36453695116091606,0.36453695116091606,0.9979036799421099,-0.41629736866735195,0.0,0.9950398944613691,-0.3998824100693178,0.0,0.988452884504181,-0.39302785755109765,0.002,0.9662803638431531,-0.3867797287565656,0.004,0.9360377473167061,-0.3771292859627227,0.008,0.8262926130699723,-0.36874746954999493,0.03,beta1
"('Fp2', 'Fz')",0.01642925642386366,-0.36418055976298463,0.36418055976298463,0.9965257049674896,-0.3863550530667308,0.0,0.9972407093179891,-0.3467171320818977,0.0,0.9949742767702856,-0.35795073427232016,0.0,0.9730812480373793,-0.363337363462666,0.0,0.9440915396501423,-0.354516018394505,0.012,0.8693818188847998,-0.3433954885114993,0.026,delta
"('F8', 'P3')",0.025698800295454204,0.36396617250926233,0.36396617250926233,0.9953120614488911,0.34680789096995274,0.0,0.9924195225000388,0.34987085169709536,0.002,0.9893441652031246,0.33958624643741153,0.0,0.9789436263051995,0.33721825418099954,0.004,0.9632908320958886,0.3285727151630415,0.01,0.8984835876599206,0.3277713933482658,0.026,gamma
"('Fp2', 'C4')",0.0034154794344360534,-0.36388225149160436,0.36388225149160436,0.9912901987383703,-0.41536182686944395,0.002,0.9862001351699236,-0.3843694523219624,0.002,0.9696574282576406,-0.40632783029777014,0.006,0.943283591466297,-0.3769635986642028,0.012,0.900318440014527,-0.37701235871290895,0.022,0.7881618773575861,-0.3732156157398432,0.08,beta2
"('F4', 'Cz')",0.0030377842364279345,-0.36318172402391935,0.36318172402391935,0.9886508880427125,-0.43899524462215905,0.002,0.9853121749846901,-0.39587033136640887,0.0,0.9572622295674132,-0.4206826840509009,0.012,0.9303630477742777,-0.38948350268381676,0.01,0.8842205262440616,-0.39646518944245185,0.034,0.7816350472825572,-0.37810440877076,0.08,beta2
"('Fp2', 'C4')",0.003927407519247125,-0.361356801705715,0.361356801705715,0.9964211377722948,-0.4083042871788769,0.0,0.9976841415718509,-0.3742883973980752,0.0,0.9791118113876704,-0.39145284048526635,0.004,0.943446175770298,-0.3742809475411901,0.006,0.9188179157482499,-0.3786588216580813,0.022,0.7940901766177932,-0.3710937258868258,0.05,alpha1
"('Fp2', 'Fz')",0.0013341527083157814,-0.3601654695809531,0.3601654695809531,0.996388508301555,-0.45261187082931675,0.0,0.987030491040786,-0.42714280738292437,0.002,0.9764777008312304,-0.4332867718551759,0.002,0.9332162625789063,-0.4161227482913165,0.01,0.8474055126826558,-0.41117171065798,0.026,0.7067893423612917,-0.3947891669881767,0.098,theta
"('F7', 'T3')",0.0013701797650536222,-0.36013369203963597,0.36013369203963597,0.9957430255530724,-0.3958734081868154,0.0,0.9920131027051539,-0.40553504765693915,0.0,0.9809074059183065,-0.40228079910452713,0.0,0.956849160862171,-0.39522038550926286,0.004,0.8955529383088371,-0.399197958458651,0.024,0.7765189275914809,-0.39056878974969605,0.058,delta
"('T3', 'P3')",0.0010658223865300553,-0.35939360242706553,0.35939360242706553,0.9959938968180871,-0.44230296439374356,0.0,0.9961488592242973,-0.4129127820818864,0.0,0.9907613871947845,-0.39635605834386106,0.0,0.96294202708138,-0.4002797986544548,0.002,0.9144727630330282,-0.39774033104319795,0.012,0.7612071393364908,-0.3884261477310863,0.058,alpha2
"('Fp2', 'C4')",0.0025418354132439895,-0.359316989680931,0.359316989680931,0.9981256283509412,-0.4006274031259207,0.0,0.9894812828557266,-0.3780863384250274,0.0,0.9823778931795463,-0.39522886722554046,0.0,0.9518450812697669,-0.3858367638630752,0.008,0.9229653986333819,-0.3820137377202692,0.014,0.8065453790305682,-0.3721714609420134,0.058,theta
"('Fz', 'C4')",0.002364388618588182,-0.35622727006776467,0.35622727006776467,0.9969661663765625,-0.424570669167407,0.0,0.9941774883242386,-0.39168519781465577,0.002,0.9876793495097843,-0.4012677417764181,0.0,0.9735198449975168,-0.3826047681139776,0.0,0.9274389656246056,-0.3865997573681927,0.004,0.8292986882229091,-0.3771862309864489,0.028,beta1
"('F7', 'Cz')",0.002685127877098388,-0.35563846819754824,0.35563846819754824,0.9929022432516321,-0.42298917427108035,0.0,0.9891666202374527,-0.38773349566015675,0.002,0.9794974839850011,-0.4052012869756973,0.004,0.9364812481715089,-0.3942834982927021,0.01,0.8987749689963903,-0.37877067464578595,0.028,0.7771319605452494,-0.3819176991804954,0.068,beta1
"('Fp1', 'F4')",0.004448809778750463,-0.3552309583253618,0.3552309583253618,0.9985039443770402,-0.39564087744066057,0.0,0.999400885437167,-0.36699014033145405,0.0,0.991849627371265,-0.3650361309717562,0.0,0.9738611253263376,-0.3747353508046387,0.0,0.956647159309389,-0.3671060157529464,0.006,0.8444467375181947,-0.3644676808763309,0.026,delta
"('F8', 'Cz')",0.012667001331287479,-0.35510604639731846,0.35510604639731846,0.9837554128239495,-0.415249971777502,0.002,0.9780842775505441,-0.36904022233843603,0.0,0.9596453216809254,-0.3951636098265612,0.01,0.9536014417083634,-0.3687763774884514,0.016,0.9030816564877466,-0.36725554533268456,0.024,0.8158127621183698,-0.35729640683167807,0.052,beta1
"('T3', 'T5')",0.007326011343707955,-0.3549794055958581,0.3549794055958581,0.986894649644388,-0.4154347242606678,0.0,0.9779069562819711,-0.3945329957162506,0.004,0.9644287038389336,-0.40635924127395734,0.01,0.9381615163125706,-0.3948237723518503,0.016,0.9043922602381581,-0.3737686240698755,0.028,0.8245494841993328,-0.357729021311652,0.048,beta2
"('T5', 'T6')",0.014622569920978755,-0.354600011109821,0.354600011109821,0.9881640733759414,-0.40421800662977064,0.0,0.9744327024422339,-0.39232335323616746,0.002,0.9801085735167063,-0.36800392110599045,0.002,0.945911251072051,-0.3708463556647932,0.016,0.9321568010099389,-0.34922676591709156,0.022,0.8570325751333979,-0.3435302076068451,0.042,alpha2
"('T3', 'P4')",0.01805637103194534,-0.35459691541135396,0.35459691541135396,0.9933848218080391,-0.371092920865422,0.0,0.9914242644052437,-0.37115444988489193,0.002,0.987618139494326,-0.35690181175767466,0.0,0.9680329543660824,-0.35723230470876766,0.006,0.9397663894768526,-0.34685893874055873,0.014,0.8671487627828108,-0.33926116497739667,0.024,alpha2
"('F8', 'C4')",0.033584470119660724,-0.3523580338489013,0.3523580338489013,0.9897806031598176,-0.3752403033100372,0.004,0.9962858874425824,-0.3272908237030334,0.0,0.9847735338022163,-0.3690279589786584,0.0,0.9762316597475247,-0.3366819211617919,0.006,0.947434664588944,-0.3426717705097319,0.014,0.8718186082673783,-0.3311374957442583,0.03,beta2
"('O2', 'C3')",0.0014366900402914193,0.3518201920503373,0.3518201920503373,0.982082155980955,0.4336879544073057,0.004,0.9752850928304384,0.42939181153426653,0.002,0.9548476248670535,0.42994729747537275,0.008,0.9085702231419777,0.414989648553503,0.022,0.8632790424958813,0.40782160854446725,0.052,0.751084020194559,0.398784897196871,0.09,alpha1
"('F8', 'Pz')",0.001605358923187547,-0.35176772550144764,0.35176772550144764,0.9903713198470177,-0.41212899657042784,0.0,0.9863132687292955,-0.4042458233661701,0.002,0.977052034223421,-0.39221295928689515,0.002,0.9540884606887375,-0.3974190018117161,0.006,0.9020583190951053,-0.3891573567371785,0.018,0.7813096177753464,-0.37999575114419704,0.052,alpha2
"('T4', 'Cz')",0.01881457316231568,-0.35087952532336686,0.35087952532336686,0.9888293636903798,-0.40909926894214066,0.002,0.9845237336582883,-0.36082627918684423,0.004,0.9626819999365334,-0.37541816472219786,0.008,0.9551822766368679,-0.35693691622036716,0.012,0.9314770232760724,-0.35128896563019457,0.022,0.8516076975983548,-0.34186978756308456,0.034,beta2
"('F3', 'C4')",0.011866374269889448,-0.3507982597317264,0.3507982597317264,0.9990339264171462,-0.3744693675216524,0.0,0.9949813654668733,-0.3504160637453877,0.0,0.9915810118333197,-0.3637672004587798,0.0,0.9816896641288831,-0.35261645735972463,0.002,0.9572811171679882,-0.3506371553171067,0.002,0.8510847064892846,-0.35288315851710533,0.04,beta1
"('F3', 'T3')",0.013438472665941283,-0.3470321251212508,0.3470321251212508,0.9959365187511927,-0.43489695045143606,0.0,0.9748204564973721,-0.4298230755329069,0.004,0.957287018176377,-0.42340415865999126,0.006,0.8988163933930781,-0.39927143974939466,0.02,0.8673830553902244,-0.3939573755938787,0.052,0.7852923831366707,-0.3702778836007772,0.1,delta
"('F8', 'Cz')",0.006145595061548252,-0.3469043420855006,0.3469043420855006,0.993382962649538,-0.40187349349004536,0.0,0.9889405179406474,-0.3699156070175511,0.0,0.9714779121161402,-0.3921109481795233,0.004,0.9480336310536241,-0.3809133913622653,0.01,0.899088668905156,-0.3717897284251037,0.024,0.810890026172268,-0.3614463314169238,0.066,alpha1
"('O2', 'Pz')",0.03200637930274883,0.34686016442049067,0.34686016442049067,0.990454348300885,0.3628655710996084,0.004,0.9902848043857948,0.3545172406858635,0.002,0.9688383290563432,0.3595829829438973,0.006,0.9704742234858381,0.3387900366238268,0.0,0.950812489169367,0.32569725782892384,0.006,0.8984386729353775,0.32980263441963015,0.022,beta2
"('T6', 'C3')",0.04766901434230463,-0.34536821407365126,0.34536821407365126,0.9951890614274892,-0.40206842971123763,0.002,0.9840971158706588,-0.3710639659772462,0.002,0.9829527068739325,-0.3347653097784525,0.004,0.9610437267832289,-0.3561814270241295,0.012,0.9478894934408846,-0.3352924611022237,0.012,0.9021236524208257,-0.32357662804563353,0.028,alpha2
"('O1', 'Cz')",0.028610531714772257,0.3446577209360672,0.3446577209360672,0.9945089708648372,0.35216531191543127,0.002,0.9969981951183232,0.331228489999622,0.0,0.9859434302928916,0.3562229032695477,0.002,0.9669049376909403,0.3477524877249664,0.008,0.9380000483153486,0.3353806164867001,0.016,0.8758309674743974,0.33399956871882863,0.028,beta2
"('T4', 'P4')",0.003888524824411796,-0.3432511612793725,0.3432511612793725,0.9858681360794439,-0.4511744456649331,0.0,0.9818595100550758,-0.40736566622736453,0.004,0.9590530172766186,-0.43185735660343877,0.006,0.9037419549381644,-0.4074073914302089,0.042,0.8902308958837406,-0.3843800040859222,0.032,0.7830038384153345,-0.3787360580561633,0.096,beta1
"('T4', 'O2')",0.01341668131290468,-0.34093321844259716,0.34093321844259716,0.9771594183142039,-0.4501609111527649,0.006,0.9649198036203445,-0.4021711895774187,0.01,0.9503113699404996,-0.4184325204994853,0.01,0.9134195501195416,-0.38513317020490223,0.03,0.9067478885244283,-0.3672482293940826,0.03,0.7982083950032496,-0.3678620881515744,0.074,beta2
"('Fp2', 'Cz')",0.000665244522836459,-0.33949271721540913,0.33949271721540913,0.9881555524666802,-0.45979080946671963,0.0,0.9882773261658154,-0.4247827744932193,0.0,0.9478493193341078,-0.44500622580749355,0.008,0.90799189549702,-0.4193426083832663,0.032,0.8410489251882629,-0.4188473036604624,0.05,0.7116893699416447,-0.406566957109729,0.116,alpha1
"('C3', 'Pz')",0.02768834844602111,-0.3392924202227979,0.3392924202227979,0.9968003065599655,-0.358734743229396,0.0,0.9989335130412377,-0.3213218746496017,0.0,0.9927900109498589,-0.35568875982207077,0.004,0.9933700337223712,-0.3343777144256658,0.0,0.9778005596841468,-0.3375245995489722,0.002,0.9419070252559382,-0.32803730655751395,0.004,beta1
"('Fp1', 'Cz')",0.020036774731974176,-0.3383063405521371,0.3383063405521371,0.9995218044202951,-0.35641880102781787,0.0,0.9972422034352034,-0.3352991369878462,0.0,0.9952471526463733,-0.34903110015153277,0.0,0.9813941712831148,-0.34432156133293246,0.002,0.9643668280877933,-0.3384785761639625,0.002,0.8948836019404628,-0.3354813912472627,0.014,theta
"('F4', 'C4')",0.014090586206390143,-0.33513246788425965,0.33513246788425965,0.9988448822739988,-0.3917180473189355,0.0,0.9948212320890772,-0.34531160542106915,0.0,0.9866900843533134,-0.3625847900895651,0.0,0.9645571999740764,-0.3474308687557263,0.004,0.9469269379386135,-0.34761496654984725,0.008,0.8843111799326621,-0.3399958532034636,0.024,alpha1
"('Fp2', 'Cz')",0.0010201577913524175,-0.3348101409943728,0.3348101409943728,0.9814620711056203,-0.4361812155809345,0.004,0.9769612470159027,-0.40925180294897223,0.004,0.9578440840456564,-0.42167384801461305,0.006,0.9230022049069272,-0.39870099453965147,0.026,0.8559857698680171,-0.4077761505256673,0.044,0.7311629436716613,-0.3907361936060156,0.082,beta2
"('Fp1', 'T3')",0.020416681302735436,-0.33448003719567565,0.33448003719567565,0.9885732032783241,-0.38672857797672555,0.004,0.9893945874327176,-0.36492174915037284,0.0,0.9867541745847259,-0.35254605384467685,0.0,0.9636958010313664,-0.35246661900479337,0.01,0.9419854215023835,-0.3472258429486766,0.014,0.8656191340071762,-0.3411095602660776,0.032,beta1
"('F3', 'Pz')",0.01660697862810035,-0.33355152480976147,0.33355152480976147,0.9949825444060106,-0.3747140595506251,0.0,0.9911450609164472,-0.34741040617151137,0.002,0.9845566508280204,-0.36428097138823434,0.002,0.9604266218052303,-0.3623516925046704,0.004,0.95043954574276,-0.3475584940848483,0.008,0.8671830656800132,-0.34897652897861714,0.03,beta1
"('Fp1', 'Fp2')",0.026855623054050475,-0.3320788488334341,0.3320788488334341,0.9885347228238964,-0.3587997585567712,0.0,0.9888329210517616,-0.34324424461693775,0.0,0.9863516894791804,-0.3429480638198359,0.004,0.9645237185884705,-0.34430504086518554,0.002,0.9423504962625923,-0.3377610988175403,0.004,0.8830568455993204,-0.33240337256262537,0.03,beta1
"('O1', 'O2')",0.01581240768846723,0.33176063104326226,0.33176063104326226,0.9904267494147477,0.37877209239842186,0.0,0.9803813452248099,0.38174942862660893,0.002,0.9797070288842412,0.35737476517877864,0.004,0.9632643479048768,0.3648905594028745,0.006,0.9366171942809524,0.35163496434779096,0.012,0.8503254201484491,0.34807754885453673,0.032,beta1
"('Fp2', 'T4')",0.0025511356957553777,-0.3317028612991658,0.3317028612991658,0.9934473615418211,-0.4156052389406803,0.0,0.9887670948636643,-0.39719447901191896,0.0,0.9836801175454939,-0.39073332019234913,0.0,0.9471531226193485,-0.4007339339000895,0.008,0.8917196357282833,-0.38323779725834484,0.014,0.8072978708801738,-0.37444443925845033,0.05,delta
"('F4', 'C3')",0.009558513597678,-0.33140466585276035,0.33140466585276035,0.9875226067719962,-0.4172775573682036,0.0,0.9872960716236072,-0.35945890364636673,0.002,0.9697512893906317,-0.37956376605908054,0.004,0.9635097919812565,-0.3525954851393592,0.01,0.9348525089834496,-0.3626179466766717,0.018,0.8412439547477537,-0.3552309748915501,0.04,alpha1
"('Fp2', 'T4')",0.01610729255288918,-0.32735696474169373,0.32735696474169373,0.9921929029816092,-0.3864944755312053,0.002,0.9972865255522286,-0.3429278450654513,0.0,0.9899147687569229,-0.3575281141519531,0.0,0.9811270273080849,-0.35138164588661125,0.004,0.952004135776894,-0.346180927131105,0.006,0.894926384423887,-0.3353004106868784,0.018,alpha1
"('O1', 'P4')",0.014314445610058135,0.32623284307257805,0.32623284307257805,0.9803746403906888,0.4206164734513366,0.01,0.9812287147957168,0.39025082680003975,0.004,0.9679452792302008,0.4027810361751226,0.004,0.9282926670445124,0.3968932898904459,0.02,0.9206318322630844,0.36122425779395906,0.022,0.8092048129314734,0.36639881584463946,0.05,alpha1
"('T4', 'Cz')",0.005950521523992505,-0.3227397378929442,0.3227397378929442,0.9922251455047704,-0.4123542416327017,0.002,0.9918523435285193,-0.35505011563877653,0.0,0.9863245237422075,-0.39263851639577063,0.0,0.9483194340362195,-0.36224864409682295,0.008,0.9235512847117612,-0.3667451010012786,0.012,0.8237306059349757,-0.3587099802948333,0.038,beta1
"('T6', 'Pz')",0.0461752511294089,0.3204348128780792,0.3204348128780792,0.9989777779752216,0.3177838293538017,0.0,0.9942737912877101,0.3450582089537583,0.0,0.9858199851158129,0.32798426855945556,0.004,0.9761512265922196,0.3354337072345088,0.006,0.9542260639453146,0.3284197700494847,0.002,0.8923214465906512,0.3199672953899632,0.024,beta1
"('F7', 'F3')",0.01341668131290468,-0.31759548414722194,0.31759548414722194,0.9975805446358125,-0.35372764233507126,0.0,0.99714514093355,-0.3485492251983848,0.0,0.9927046183573092,-0.3510005359821953,0.0,0.9701673835880303,-0.35094332807979184,0.004,0.9417834852917503,-0.3536059749320668,0.008,0.9139273749252367,-0.3329948442392413,0.018,delta
"('T4', 'O2')",0.03454994014648823,-0.31699984116281504,0.31699984116281504,0.9905839414168596,-0.37351549740505546,0.002,0.9855631423568061,-0.35129058712803085,0.002,0.9830821406052632,-0.36454857263335233,0.0,0.9567087833862573,-0.3633441780295452,0.014,0.9604154268873043,-0.32483126773606263,0.004,0.881266379616166,-0.33343954647060636,0.03,gamma
"('F8', 'P3')",0.029800967911193934,-0.31566028719394096,0.31566028719394096,0.9933869463456219,-0.34569996928469154,0.0,0.9925210119127436,-0.3460219309412528,0.0,0.9812757096970982,-0.3402257916534249,0.0,0.9763941079276371,-0.33992139113542,0.008,0.956467953049012,-0.331938139321451,0.01,0.9149574554904437,-0.32464479775705934,0.012,alpha2
"('O2', 'Cz')",0.026900908046288207,0.31482422645447994,0.31482422645447994,0.9919644050949544,0.379859435447426,0.0,0.980271489477315,0.3802463243002473,0.002,0.973168471466858,0.37224035188205035,0.0,0.9653525211715952,0.35807416609003745,0.004,0.9279701958936639,0.34795311012311886,0.024,0.8509505623050053,0.3400271348554991,0.04,beta1
"('Fp2', 'C3')",0.009603482694059315,-0.314734128728877,0.314734128728877,0.9939034434531349,-0.39687453778684273,0.002,0.9918862928735234,-0.37259449643816384,0.0,0.9813584062297932,-0.37998051709282993,0.0,0.9515425347774088,-0.3756762625445212,0.008,0.8960631823546062,-0.3738318321479146,0.032,0.7938592057837601,-0.36330591286687397,0.06,alpha2
"('F4', 'T4')",0.03791594207847933,-0.3145868524036188,0.3145868524036188,0.9994308401818667,-0.3612819819813439,0.0,0.9962940326389933,-0.3394183380105445,0.0,0.9938945649754509,-0.3455333870062832,0.0,0.9879249260575221,-0.3274419026446405,0.002,0.9631294866534985,-0.33970387625497445,0.012,0.9281286411577644,-0.3195854883166932,0.002,delta
"('F3', 'Pz')",0.033812631697384805,-0.31296480766537876,0.31296480766537876,0.992032362168669,-0.3584626590652248,0.002,0.9883031753323136,-0.3396767672803855,0.0,0.9877746576473633,-0.35051567522340915,0.002,0.9702441037373141,-0.3479892298321751,0.006,0.9556076170172028,-0.33688474073249364,0.004,0.8972430900344132,-0.3240429762137994,0.024,alpha2
"('T4', 'T6')",0.01544430999298289,-0.3118453347167117,0.3118453347167117,0.998038521814734,-0.3714192889321723,0.0,0.9952586368922651,-0.35036206072110415,0.0,0.9956919617633596,-0.3595941823373344,0.0,0.9694501389525836,-0.3504213006046189,0.004,0.9575411519257715,-0.3408222154170177,0.01,0.8816880564595198,-0.33951856266899044,0.018,beta2
"('Fp2', 'C3')",0.002841692228242094,-0.31126961776630757,0.31126961776630757,0.9969252013402072,-0.4030130990392401,0.0,0.9918884819173541,-0.38299138148741435,0.0,0.9797657963743799,-0.4036948013010491,0.006,0.9529575344405312,-0.38096134876965704,0.01,0.9046203453283762,-0.3851495924941904,0.026,0.7976367581092348,-0.3729478675116127,0.06,theta
"('Fz', 'T3')",0.03422729489110286,-0.30761419705133797,0.30761419705133797,0.9979808171653775,-0.35718597125741997,0.0,0.9943385445689166,-0.3358707277666026,0.0,0.9928405094023093,-0.3422690222513879,0.0,0.9869502284641876,-0.3388516838197032,0.0,0.9548666065946346,-0.3386343606020598,0.01,0.913551031180774,-0.3280259114550478,0.014,delta
"('T3', 'C3')",0.009418215056487229,-0.30192779219823496,0.30192779219823496,0.9821007823087841,-0.41342003347360495,0.006,0.9799924917697015,-0.39060808770017924,0.006,0.9728034608125157,-0.38951133012691613,0.006,0.9320043093825132,-0.3828574409270133,0.014,0.902525349934562,-0.3761844760710987,0.024,0.8482439173895973,-0.3565006858826078,0.05,beta1
"('O1', 'C4')",0.024169061557477736,0.3018406667681309,0.3018406667681309,0.9925221154708079,0.3651421100494239,0.002,0.9880412077241243,0.3347291630371601,0.0,0.9754046580155916,0.3600502948436059,0.004,0.9605398514045929,0.35424881494507654,0.006,0.9411570611641976,0.33333144022048006,0.006,0.8637017692328472,0.33925785166419825,0.03,beta2
"('F3', 'C3')",0.03383975865745167,-0.3012349782153667,0.3012349782153667,1.0,-0.3427711158897077,0.0,0.9944377650873869,-0.3241040165202114,0.0,0.9937446996038848,-0.34705130505123527,0.0,0.9938962424124994,-0.32851549864285856,0.0,0.9814659311175313,-0.32988205444708346,0.002,0.9131650760396064,-0.32724355056006754,0.014,alpha1
"('Fz', 'T4')",0.013480048537293532,-0.3007392936900446,0.3007392936900446,0.9930921499078809,-0.41085255162995793,0.0,0.9906322141340096,-0.3551016281359686,0.0,0.9795787102847807,-0.3839536225574422,0.0,0.956272278661611,-0.36624647206200067,0.008,0.926497745940223,-0.3538692485812893,0.016,0.8512701837057663,-0.348678582319911,0.046,beta1
"('F7', 'C4')",0.020493672552624687,0.2997523115572146,0.2997523115572146,0.9924074537974367,0.3650537878987313,0.0,0.9886733086928375,0.35645120667755736,0.004,0.9866181210103716,0.35491158211778817,0.0,0.9593302756108024,0.3530519153544374,0.002,0.9339325421318121,0.3434641625843348,0.016,0.9003757825876013,0.325693126629872,0.032,gamma
"('Fp2', 'O1')",0.020954216202843923,0.2997147684775219,0.2997147684775219,0.9885135778775854,0.38261646956620277,0.002,0.9812319671100181,0.37286743589314764,0.0,0.9826396650019724,0.3504760562372576,0.004,0.9447159381294774,0.3580294628470263,0.012,0.9328710907528456,0.34878517157383704,0.014,0.8734297425483605,0.3384336147270427,0.03,gamma
"('Fp1', 'C4')",0.04057646459018566,-0.2962861074690981,0.2962861074690981,0.9989232181393897,-0.3564981119799567,0.0,0.9962826192756771,-0.33321929090832547,0.002,0.9827493223454863,-0.33460725530926827,0.0,0.959258701117348,-0.3507093427975729,0.006,0.9454247093835,-0.3452054168555528,0.01,0.8791208473942143,-0.3292312054796442,0.028,delta
"('O1', 'P3')",0.015224632652160877,-0.29410750415664505,0.29410750415664505,0.9981864764176269,-0.3608499639270409,0.0,0.9941686123450225,-0.3585909005079389,0.0,0.9947141144591783,-0.3636694805369426,0.0,0.9871965631119913,-0.34533051299350787,0.0,0.9625911070441893,-0.34873831522287146,0.006,0.8835684342518388,-0.3486206582668552,0.014,gamma
"('F3', 'C4')",0.04186897055751416,-0.29220374779669334,0.29220374779669334,0.9983512592684205,-0.3610733263476648,0.0,0.9943926386886743,-0.3395516881075004,0.004,0.9917273092100082,-0.3257084436074658,0.002,0.989034439804319,-0.3256860352452163,0.0,0.9794538600123122,-0.3289736846893218,0.002,0.9279132526782289,-0.3232651690358018,0.01,alpha1
"('F3', 'Fz')",0.03816046488808752,-0.29195184194699675,0.29195184194699675,0.9952374159036177,-0.34802663185218113,0.0,0.994712769173032,-0.3413525474794206,0.0,0.9911170501310645,-0.33767188427070455,0.0,0.9814945649839887,-0.3359472162434799,0.002,0.9639797788465121,-0.33396020782266805,0.006,0.9045329468983451,-0.3195843752669449,0.018,delta
"('T4', 'T6')",0.016211409846226245,-0.2914363516677492,0.2914363516677492,0.9918453425021835,-0.3843065496903419,0.002,0.9839800416751237,-0.36113733403872833,0.002,0.9903144968937695,-0.3546758853599713,0.002,0.9621277288400409,-0.36491945675463094,0.002,0.9482497317244039,-0.33765718832146085,0.01,0.8729712036240465,-0.3434483478135622,0.018,gamma
"('F3', 'C4')",0.030345130706086323,-0.29042399345109987,0.29042399345109987,0.997420140795526,-0.3272299204466882,0.0,0.9950722832000309,-0.34299969659919544,0.002,0.9887325031886692,-0.33268202302808136,0.002,0.9802881426083445,-0.33496033398727554,0.002,0.9744285367255558,-0.32571079573482603,0.004,0.9307682000663184,-0.3180437976977098,0.008,theta
"('P3', 'P4')",0.04039332711666503,0.28446454441654906,0.28446454441654906,0.9960191316660582,0.36006191414815286,0.0,0.9962918168635446,0.3869920909820617,0.0,0.9861001914197135,0.3852857306707024,0.006,0.9779768941900702,0.3762615086818852,0.004,0.9672556098571546,0.33629959145109733,0.008,0.8785797133546767,0.34004491007066034,0.026,alpha1
"('T4', 'Pz')",0.04163150339915789,-0.27967448080782115,0.27967448080782115,0.9893214115735075,-0.405696821254994,0.0,0.9762543559590389,-0.3674423553806586,0.0,0.9711327961137305,-0.3696630623941838,0.002,0.9456314943624374,-0.35222560884617377,0.016,0.9314171276096527,-0.33922472135625714,0.02,0.8830992684703332,-0.3301051232525273,0.032,alpha2
"('O2', 'C3')",0.03921549751389915,0.2778398654241949,0.2778398654241949,0.9920501594624729,0.38432382605820853,0.0,0.9755043033222175,0.3894094615628329,0.004,0.9736545738852217,0.37145852065288965,0.004,0.9624175703574462,0.3580487545420173,0.008,0.9450711023260582,0.34707658401867947,0.014,0.8772417917021976,0.34062962614365966,0.032,beta1
