,p_vals_full,mean_eff_size,abs_eff_size,p_vals_sz_20,eff_size_sz_20,freq_repr_sz_20,p_vals_sz_25,eff_size_sz_25,freq_repr_sz_25,p_vals_sz_30,eff_size_sz_30,freq_repr_sz_30,p_vals_sz_40,eff_size_sz_40,freq_repr_sz_40,p_vals_sz_50,eff_size_sz_50,freq_repr_sz_50,p_vals_sz_70,eff_size_sz_70,freq_repr_sz_70,band
"('Fz', 'F4')",5.296377850387855e-26,-1.0716371851848483,1.0716371851848483,0.23941054202694703,-1.1921742719709223,0.29,0.0912738936612927,-1.1446286320711978,0.572,0.029209053458135164,-1.113184914802736,0.864,0.0013963490613704962,-1.1139904099086546,1.0,9.342686796699089e-05,-1.0923697012124596,1.0,2.8235425619367844e-07,-1.0798661814387265,1.0,alpha2
"('F3', 'Fz')",4.4033458778830386e-26,-1.036505589363784,1.036505589363784,0.2726977290198262,-1.2083917529297146,0.306,0.11114408956240553,-1.1389991228836283,0.574,0.0350425433013362,-1.145259588566677,0.834,0.0020916006915629665,-1.1167567015775544,0.998,0.00015161891475429711,-1.1167044678907205,1.0,2.8282812293787843e-06,-1.095104306008277,1.0,alpha2
"('Fp1', 'Fz')",6.201036343205412e-24,-0.9939902052958102,0.9939902052958102,0.28468097237873063,-1.1246141900496662,0.248,0.1159562534712387,-1.0792995904408837,0.526,0.03657086412636895,-1.0620643148252928,0.838,0.002920219800329435,-1.0422084933383713,0.99,0.00017683696929315522,-1.0342333157989179,1.0,3.4802223218420496e-07,-1.0164332076992768,1.0,alpha2
"('F7', 'Fz')",4.8041024973677455e-24,-0.9662062533752367,0.9662062533752367,0.3215040729335933,-1.1516085107366434,0.274,0.14085291321228838,-1.1043826504970329,0.506,0.04707765526669356,-1.0960884037839134,0.782,0.0033342884571810126,-1.0721985220657222,0.99,0.00029038876031269495,-1.0561804943613475,1.0,1.7689457911050676e-06,-1.0313290936743973,1.0,alpha2
"('F3', 'F4')",1.5152009878181116e-21,-0.9650258044747442,0.9650258044747442,0.3664918292743558,-1.0662778514789366,0.178,0.18854767868378072,-0.9875378330547037,0.392,0.07064289568566719,-0.9895777164303656,0.71,0.007823220828919286,-0.975345046702747,0.958,0.0007915827909139825,-0.9623809320472407,1.0,1.7586561869167804e-05,-0.9503893534659681,1.0,alpha2
"('Fp1', 'F3')",8.571204035977693e-24,-0.9532540870535122,0.9532540870535122,0.2749287758692123,-1.1744468432823694,0.272,0.11740447798802092,-1.1002389218806006,0.544,0.03799222380811967,-1.093872806181219,0.836,0.0028563475257117497,-1.038623883364514,0.992,0.0001432053471008747,-1.0486109850441245,1.0,4.516198420407806e-07,-1.0236841935769483,1.0,alpha2
"('F7', 'F3')",2.2819945270959084e-20,-0.9030720013953009,0.9030720013953009,0.35052847150876704,-1.101179065787295,0.2,0.15430420997195363,-1.0497884543929388,0.396,0.055725427382794575,-1.0285364485830266,0.71,0.00523551639116314,-0.9847941133551703,0.988,0.0006235626841622744,-0.9777341459525021,1.0,3.676465791981455e-06,-0.9469050315791729,1.0,alpha2
"('Fp2', 'F4')",4.4710830078079485e-20,-0.8929957392845205,0.8929957392845205,0.4024791977491618,-1.0497172897850464,0.192,0.2189542368438723,-1.0005463438242042,0.388,0.0947766932779755,-0.9716641352545871,0.642,0.019869439248166264,-0.9462979244221164,0.908,0.0020495033445366794,-0.9375718825158681,0.992,1.7227219177959967e-05,-0.9055462706070735,1.0,alpha2
"('Fp1', 'F7')",1.829984119913018e-20,-0.8754940900542054,0.8754940900542054,0.3995431819526916,-1.0264015635994357,0.132,0.1793936714673504,-1.0004125266573745,0.382,0.07032337042495757,-0.9722650172354687,0.684,0.006538116044621748,-0.9613466275184477,0.976,0.0008021426808144973,-0.936481426075555,1.0,8.004481722455945e-06,-0.9155825403749998,1.0,alpha2
"('F7', 'F4')",1.3641538531964814e-18,-0.8614970992264853,0.8614970992264853,0.4773385679267697,-0.9511830976772522,0.136,0.27499154356201266,-0.9022009775759664,0.294,0.1291593645023147,-0.8975390298140877,0.55,0.022704539437264238,-0.8797434073497253,0.906,0.0035661234568056194,-0.8712606847715686,0.99,5.105626968294362e-05,-0.8601764182929622,1.0,alpha2
"('Fp1', 'F4')",4.4710830078079485e-20,-0.8576091575378308,0.8576091575378308,0.4085294985440931,-1.0156981350474592,0.166,0.22445457524183296,-0.9704112524408517,0.386,0.09416190281058198,-0.9515634110794056,0.61,0.01670991758185903,-0.9270022605079571,0.926,0.0018814384586763964,-0.9190799254548233,0.994,1.2072395164583075e-05,-0.9075589175050657,1.0,alpha2
"('Fp2', 'Fz')",2.5799949359141698e-20,-0.8441858035268028,0.8441858035268028,0.37282975445597033,-1.0652863847969962,0.204,0.18626041273517158,-1.0114045069019655,0.424,0.07584452357829467,-0.9830190196785171,0.692,0.01249538786056907,-0.9569026665009704,0.944,0.0010261574150013145,-0.9521114745146304,0.998,1.1229811551554539e-05,-0.9134097670652507,1.0,alpha2
"('Fp1', 'F3')",1.4547651603280283e-17,-0.8034891144503071,0.8034891144503071,0.48496412949075546,-0.9000336793794526,0.048,0.22952823823126683,-0.8847835381872992,0.216,0.09637859144238409,-0.8520642670918226,0.508,0.010635706362116876,-0.8424774365289424,0.964,0.0014782448439476876,-0.827575267185071,0.998,1.3311457680240715e-05,-0.8247576552362597,1.0,beta1
"('F7', 'O2')",8.484831487458778e-17,-0.7962683435924267,0.7962683435924267,0.5357763960042928,-0.881147735124898,0.078,0.3288667209161737,-0.8360813164199868,0.238,0.15760751466417214,-0.8366056603921602,0.472,0.03401572136889464,-0.8161499219541549,0.822,0.007916746719117908,-0.797147856581362,0.972,0.00012867897736753238,-0.7904822616976257,1.0,alpha2
"('F7', 'T6')",1.0887652945446342e-16,-0.7823511626283921,0.7823511626283921,0.5255172467094017,-0.9043914086354877,0.082,0.3180666180316869,-0.8487188852851174,0.214,0.15503431917640761,-0.8483214649095867,0.436,0.03418434754812865,-0.8212683515321669,0.832,0.0068684450157107686,-0.8148972287758064,0.974,0.00021992977096055365,-0.7935201895782849,1.0,alpha2
"('Fp2', 'F7')",4.025399571579126e-15,-0.7625879335780414,0.7625879335780414,0.6043279695241043,-0.8129298130826047,0.064,0.3923534755643578,-0.7963718981770493,0.196,0.21682352560743431,-0.7857029316572925,0.4,0.053642138708397964,-0.7743103302785159,0.744,0.013527739234751274,-0.7642164685388031,0.928,0.0006999396832565338,-0.7568309224821904,0.998,alpha2
"('Fp2', 'F4')",5.409467153843421e-16,-0.7602110029296062,0.7602110029296062,0.5628884558649525,-0.832264732117343,0.046,0.31374899876359286,-0.8390341947807936,0.222,0.17648808736285218,-0.798710583527823,0.406,0.038072165085199325,-0.7902398541083729,0.814,0.007645446909059693,-0.7763044745160411,0.97,0.00024127230906157416,-0.7654598709021114,1.0,beta1
"('Fp1', 'O2')",2.2144646508085142e-15,-0.7471581350024529,0.7471581350024529,0.597741532314002,-0.8423226197140099,0.062,0.3740864452974233,-0.810142470168674,0.168,0.21634817413263785,-0.7947446606383219,0.386,0.050301244253806124,-0.7832880664312379,0.768,0.010180670328971918,-0.776699139946202,0.95,0.00039564424639731375,-0.7567581445051044,1.0,alpha2
"('C3', 'Cz')",9.893980183178925e-17,-0.7461700323621329,0.7461700323621329,0.5284583213107921,-0.89459427894322,0.076,0.32418030799011743,-0.8443327284440449,0.242,0.14851551497459853,-0.8452364397126003,0.48,0.02770645231600238,-0.830957498455235,0.86,0.005197900542425305,-0.8210533007590226,0.976,0.00017781719650186177,-0.8009657302540372,1.0,alpha2
"('Fp1', 'Fz')",2.2142243016695743e-15,-0.7377843103335188,0.7377843103335188,0.5931024492024045,-0.81941343863553,0.028,0.33239356221046046,-0.8204048901642278,0.172,0.1787586658362402,-0.7793985796874991,0.382,0.03507497406298421,-0.7708022062645054,0.816,0.005847328051945448,-0.7655069737662701,0.974,0.00013791093651727891,-0.7561749100713789,1.0,beta1
"('T3', 'Cz')",8.355988027766007e-15,-0.7353201184943333,0.7353201184943333,0.6044388492612932,-0.8044031915212941,0.02,0.39645100685112095,-0.7644213276221028,0.126,0.20373354637795796,-0.7594771054366417,0.328,0.042545790829838816,-0.7551584820088504,0.772,0.008573412801446427,-0.7474739984328945,0.976,0.0002915100984932534,-0.7387898486846839,1.0,alpha2
"('T6', 'O2')",3.798451541487296e-15,-0.7339043081585787,0.7339043081585787,0.5879696692237236,-0.8329650771014254,0.044,0.35947600220337406,-0.8033791218930226,0.164,0.22471297900575898,-0.7874459623415472,0.388,0.047110106083573806,-0.7835333348648116,0.774,0.012885849537301451,-0.7566767308393767,0.944,0.0004372570628422466,-0.7529905239159598,1.0,alpha2
"('Fp2', 'F3')",3.5822046701787744e-17,-0.7337680961720423,0.7337680961720423,0.4909227516979799,-0.948283647637196,0.12,0.28123580053060415,-0.8972474895345223,0.282,0.12020162325321199,-0.8937572687671976,0.552,0.01934479636356503,-0.8500170204832387,0.902,0.0030049233711300673,-0.8391695689713706,0.994,9.92721495344857e-05,-0.8211831085754651,1.0,alpha2
"('F3', 'F8')",3.04668012041752e-15,-0.7277352307198579,0.7277352307198579,0.5833166617946095,-0.8194533221117688,0.056,0.3834238068511554,-0.7902168704324475,0.17,0.2138242533570759,-0.7914345608058653,0.384,0.04865707538253456,-0.7708735859991195,0.762,0.014975330687750922,-0.7640781283658841,0.946,0.000463921263693976,-0.7548728898623009,1.0,alpha2
"('Fz', 'F8')",3.197368175942688e-15,-0.7272604556474189,0.7272604556474189,0.5576428839163269,-0.8655136052611028,0.084,0.3841943562133902,-0.8110679151028498,0.198,0.2160265089573992,-0.8172207681958376,0.414,0.05514397140239426,-0.7811323733853333,0.758,0.017030272807657575,-0.772765939319428,0.924,0.0007187553716019137,-0.7566797697312982,0.998,alpha2
"('Fp1', 'T6')",2.1237381107206128e-13,-0.7214187211388338,0.7214187211388338,0.6811490973348084,-0.7514559733381557,0.038,0.4763325785931288,-0.7061123187402291,0.104,0.2942055350717966,-0.7173599328687681,0.272,0.08435210772532958,-0.6993867785632911,0.65,0.020551594067118536,-0.695682504744605,0.89,0.0012055226654647372,-0.6860752206247908,1.0,alpha2
"('F4', 'Cz')",2.5637008937018635e-13,-0.7047839556159862,0.7047839556159862,0.6479505711491772,-0.7700529909017151,0.058,0.4689985789921126,-0.7428582212420037,0.126,0.3122480940035147,-0.7198043722277275,0.264,0.09939389854653977,-0.7106383945093081,0.61,0.0334314971283027,-0.7111981740361679,0.858,0.0015792489872531038,-0.6931765578563788,0.996,alpha2
"('Fp2', 'F4')",2.4488331838687098e-14,-0.6971296440612956,0.6971296440612956,0.628106866349918,-0.7888218163585293,0.04,0.41260251261914604,-0.7689137077115966,0.142,0.2517337845938513,-0.7468369969928877,0.322,0.0658071179892224,-0.7458936958094751,0.68,0.019454276653493786,-0.729028435907021,0.92,0.0008014708691445228,-0.7151707178921305,1.0,beta2
"('F4', 'F8')",1.7264605264795064e-15,-0.6917967726570442,0.6917967726570442,0.52450097507372,-0.941155870169828,0.132,0.38391638665048994,-0.8600294508726914,0.258,0.23049245036350846,-0.8641195430288834,0.484,0.07063669213227572,-0.8154504397045503,0.746,0.027192137933863957,-0.8028025732076707,0.888,0.0013739816088177016,-0.7944419831658757,0.996,alpha2
"('Fp2', 'Fz')",3.8343483215861495e-14,-0.6903748041269144,0.6903748041269144,0.6121646819829414,-0.7797260543950134,0.026,0.4133748037481204,-0.7518848424718759,0.126,0.2332683057135976,-0.7430538489711618,0.32,0.06677927928852175,-0.7300181779714233,0.716,0.015221583038378577,-0.7252934772103127,0.94,0.000628737443301516,-0.7152363768278597,0.998,beta1
"('Fp1', 'F3')",9.165738301011129e-14,-0.6813481173557722,0.6813481173557722,0.5883331995817155,-0.8290599856304294,0.026,0.35077789443661517,-0.8057719196732989,0.124,0.18816169804389282,-0.7642004754813997,0.284,0.03856882773901702,-0.7512510868055466,0.77,0.006902693870489022,-0.7308530945251817,0.984,0.0002509846925676795,-0.7225007065471404,1.0,alpha1
"('T3', 'C3')",1.4088991243062462e-12,-0.6726591308865429,0.6726591308865429,0.6969015068373995,-0.7340353423690253,0.012,0.518012558085041,-0.6804297536269246,0.064,0.2821080536159131,-0.6940483085290656,0.21,0.09135530147449365,-0.6672698440556422,0.576,0.022068425855064525,-0.6731370781838546,0.9,0.0016843185882345422,-0.6657482480141019,0.994,alpha2
"('Fz', 'F4')",5.697831584373575e-13,-0.6653099908196543,0.6653099908196543,0.6697148742909964,-0.7525367054732771,0.03,0.45917198278146265,-0.7416210139290124,0.112,0.30884600884665575,-0.715628030233857,0.252,0.08425576454841983,-0.7116731496674834,0.652,0.026272821125393624,-0.6934752096323834,0.866,0.0011153303437355915,-0.6850998549031939,1.0,beta1
"('F7', 'Cz')",8.330718484386374e-15,-0.6584286711690097,0.6584286711690097,0.5784390983476622,-0.8532224568471414,0.072,0.3970393624778236,-0.813639451867263,0.196,0.23260305315526436,-0.801132767659369,0.402,0.07374388968589694,-0.7768426928492275,0.72,0.01942598987413063,-0.7625985142824018,0.916,0.001068130944704238,-0.7556818845227264,0.998,alpha2
"('F4', 'F8')",2.8273431693420757e-11,-0.6530140701655287,0.6530140701655287,0.7077619949556684,-0.7169229471870536,0.026,0.5479032280212004,-0.6892812642710058,0.11,0.37928805401103516,-0.682663476551333,0.268,0.16844643094762202,-0.6721916735306427,0.508,0.08087575592669928,-0.6477375063987085,0.728,0.006683395021578156,-0.6344258583744702,0.958,beta1
"('F3', 'Fz')",1.3913404700402602e-11,-0.6490066586191079,0.6490066586191079,0.7331126431537226,-0.6979078249414857,0.03,0.543585630730109,-0.6798017344000838,0.076,0.34360807867438625,-0.6713434400082032,0.194,0.12393824970684272,-0.6540978346060735,0.512,0.04058143441341746,-0.6498817872897245,0.826,0.003599553694330795,-0.6404168668633267,0.994,beta1
"('Fp2', 'O2')",2.180583124789794e-12,-0.6423945416348323,0.6423945416348323,0.6889618467946129,-0.7481524615296555,0.04,0.5334520461486405,-0.6949316103655981,0.11,0.3419684774267676,-0.6971167702325293,0.23,0.1236019216884099,-0.6874598739931032,0.562,0.038795001423208575,-0.6736811011888167,0.794,0.0031638897825694116,-0.6631134798536369,0.988,alpha2
"('F3', 'Cz')",1.4088991243062462e-12,-0.6320150453948976,0.6320150453948976,0.6102332895028714,-0.8122108617999843,0.056,0.43971643293469687,-0.7608466227412236,0.158,0.328966422090561,-0.7264390397759645,0.328,0.13336943926159703,-0.7121501753192604,0.632,0.04263546540464915,-0.708656130039566,0.816,0.0042257079463194885,-0.6915796132316144,0.982,alpha2
"('F3', 'T6')",1.9361649891532188e-11,-0.6260720934668305,0.6260720934668305,0.7121523923693255,-0.7142481408309843,0.04,0.5713341444311685,-0.6548744593232866,0.068,0.37156492251304574,-0.6611367918015368,0.196,0.16678383778767217,-0.6385079833892856,0.482,0.053600737243395834,-0.6323533244029499,0.718,0.004706894923203565,-0.6308419266745939,0.984,alpha2
"('Fp1', 'F7')",5.0713282206505964e-12,-0.6231429477798408,0.6231429477798408,0.7211190614811561,-0.7109047655671866,0.02,0.5118261254218581,-0.6974783716222069,0.094,0.33147765319332373,-0.6836508352183289,0.182,0.1086107232466634,-0.6781508702447236,0.558,0.04191737421476946,-0.6522541538256966,0.818,0.002406559577070898,-0.6489716450403936,0.994,beta2
"('F8', 'O1')",4.726568573833526e-12,-0.6215957923064843,0.6215957923064843,0.7067401387889581,-0.713905629437475,0.032,0.5353952872150416,-0.6803573690405621,0.086,0.35690102027148723,-0.6722041031496121,0.214,0.1637321594010355,-0.6550165687957147,0.508,0.045553890787677756,-0.650124463378494,0.784,0.003259988023823244,-0.6611580211456161,0.986,alpha2
"('Fp1', 'Cz')",3.849358854644001e-11,-0.6189732269995145,0.6189732269995145,0.7635894313624711,-0.6617220643825852,0.01,0.5554604458631618,-0.6579138544977884,0.056,0.3824874202280183,-0.6372664103380562,0.142,0.14559178147402355,-0.6335035348458111,0.454,0.03980775049679288,-0.6319407600798869,0.806,0.004143809669594534,-0.6180773475868437,0.992,beta1
"('Fp1', 'C3')",5.2856945790559375e-11,-0.6178570794438129,0.6178570794438129,0.757197904109515,-0.663213716504366,0.004,0.5445698895165331,-0.6590414996220364,0.056,0.3960944395134333,-0.6313836220608575,0.124,0.1414886274514826,-0.6296478586501821,0.474,0.046237617918598886,-0.6170476352750756,0.748,0.0038092678900626784,-0.6106685180986907,0.988,beta1
"('Fp1', 'Fp2')",2.385510037128497e-11,-0.6163992611001886,0.6163992611001886,0.6770537866579086,-0.7450623507157587,0.058,0.5115761310953381,-0.7291749025562805,0.142,0.3725508611348848,-0.6855816195929576,0.242,0.18062804447104086,-0.6638180302233359,0.48,0.06214891205685944,-0.6604522378362011,0.732,0.005469428707728925,-0.648922552235793,0.978,alpha2
"('Fp1', 'Fz')",2.278057613041523e-11,-0.6161074977115468,0.6161074977115468,0.7137998449232548,-0.7038772034133455,0.014,0.5282993660531347,-0.6833768613577587,0.058,0.35952785766348755,-0.6617087982419778,0.15,0.1455210870300083,-0.6541858813480975,0.496,0.0383319068890612,-0.6453394052925182,0.81,0.0030278079976315767,-0.6337755237864457,0.994,alpha1
"('Fp2', 'F8')",1.0308339228294204e-10,-0.6145717489762434,0.6145717489762434,0.6508227642004312,-0.7692315157314016,0.056,0.528965811397199,-0.7248126039618249,0.166,0.38931391111953767,-0.7100968920292201,0.294,0.22314304513380961,-0.6696194795012645,0.466,0.0966048770708722,-0.6679281954394792,0.686,0.014564954612777434,-0.6364945870317015,0.942,alpha2
"('F4', 'F8')",7.155596014575306e-13,-0.6125184098515591,0.6125184098515591,0.6857011742887371,-0.7330714387921453,0.018,0.4669263960434153,-0.7160788742111579,0.088,0.28923033356234723,-0.6962990930677713,0.22,0.08785442806690666,-0.6914344062064979,0.644,0.02787163230393014,-0.6720831620966281,0.864,0.0009230948755825402,-0.6696710947417863,0.998,beta2
"('Fp1', 'F3')",7.69378372227021e-12,-0.6115376433568488,0.6115376433568488,0.7063954741105022,-0.7130473895977806,0.018,0.5091330459979299,-0.6963398966604415,0.076,0.3536674535336587,-0.6724714878205592,0.2,0.12334545966084048,-0.6669114275390415,0.538,0.04171074003171444,-0.6483097701541172,0.79,0.002604162545988288,-0.6409083095690317,0.994,beta2
"('Fp1', 'F7')",1.9361649891532188e-11,-0.6080507099451137,0.6080507099451137,0.7302819415315628,-0.6988528638235345,0.024,0.5256554417951882,-0.6891953894276108,0.096,0.36084212243317865,-0.6713241487291878,0.202,0.13896414679137495,-0.6629440597237838,0.538,0.0507904106430346,-0.6525857952198634,0.792,0.0038113211023980175,-0.6364885616784179,0.99,beta1
"('Fp2', 'F3')",2.828602212992883e-10,-0.606369213277779,0.606369213277779,0.732009262870284,-0.6856171943542949,0.018,0.5727288817571982,-0.6618064350219289,0.064,0.4139675624019103,-0.6512312859164334,0.16,0.18349454678819824,-0.624526859074513,0.422,0.06291996258729586,-0.6231416036484594,0.756,0.00895057877480383,-0.6027322316367081,0.962,alpha1
"('F7', 'F3')",3.1923753502601415e-11,-0.6061942337631883,0.6061942337631883,0.7595823053693811,-0.6932444228626052,0.002,0.5312736074339296,-0.6820081866917819,0.05,0.30762480145927484,-0.6739055677924476,0.14,0.09686855490481526,-0.6513528771942083,0.52,0.026192523287470505,-0.642995936536444,0.858,0.0018494578087757424,-0.6301936304687809,0.996,beta1
"('Cz', 'C4')",7.247136916498559e-11,-0.6033769165805172,0.6033769165805172,0.6812842749847834,-0.734522581323467,0.03,0.5333315584294582,-0.6837769536299757,0.11,0.3655177010835012,-0.6874156188360069,0.254,0.19700506616332497,-0.6759442454362508,0.546,0.08839077424864905,-0.6684583860808362,0.718,0.01398292876703653,-0.6407652975497985,0.93,alpha2
"('F3', 'Fz')",3.158374412907237e-10,-0.594696689667823,0.594696689667823,0.682454586573575,-0.7275622631604347,0.036,0.5124381151226421,-0.7105904326831335,0.12,0.3968711299879607,-0.6658743169542994,0.216,0.24540238390484054,-0.6447131560646662,0.524,0.11360927332691322,-0.6401621628794173,0.666,0.015059423392967777,-0.6286266513319254,0.918,alpha1
"('F8', 'T5')",4.77720766665143e-11,-0.5934602985281783,0.5934602985281783,0.7664782939221176,-0.6637277017984625,0.016,0.5734407229174647,-0.650381082387626,0.042,0.40424738170613234,-0.6360746403971708,0.148,0.17407458445132956,-0.6200303692024852,0.464,0.05292392978456727,-0.612802111543597,0.74,0.005469972159442346,-0.6195491335172466,0.986,alpha2
"('Fp1', 'F4')",9.413472305357117e-11,-0.5903189850154507,0.5903189850154507,0.7610439409180701,-0.6816897063464177,0.022,0.5818283941125489,-0.6543450952081017,0.042,0.4025813170656078,-0.6374338408282447,0.136,0.17936364409166858,-0.6272968246126742,0.436,0.058521976299361664,-0.6169389761815676,0.762,0.005253061561175957,-0.6115740067578258,0.982,alpha1
"('F7', 'F3')",6.728648920314588e-11,-0.5874667151008135,0.5874667151008135,0.7102779924613483,-0.7167574759415858,0.024,0.5217695461491643,-0.6855153832492082,0.062,0.35259231086843634,-0.668740491616856,0.17,0.14308445696186714,-0.6544993139659869,0.53,0.052687742827314255,-0.6457015931199637,0.782,0.004870618563435848,-0.6245221021304836,0.984,alpha1
"('F8', 'O2')",5.570448031697178e-09,-0.5874035042792409,0.5874035042792409,0.7952830516234335,-0.6039254887585995,0.004,0.6716187402239747,-0.576759940230182,0.028,0.49661084884013146,-0.5956264520227351,0.128,0.30016311595496303,-0.56306415989553,0.31,0.15009954233155737,-0.5427643626907646,0.5,0.024050980244989698,-0.5476841986372583,0.882,alpha2
"('F3', 'Cz')",1.634860112874726e-10,-0.5873477188570226,0.5873477188570226,0.7588075107171043,-0.6723051204471804,0.014,0.5826756264514326,-0.6570509181637105,0.068,0.4002422625247089,-0.6312515822188743,0.154,0.17182328439869274,-0.627004891926665,0.41,0.07035561736223324,-0.615285367887812,0.696,0.006438817344147943,-0.6106018705848036,0.974,beta1
"('Fz', 'T3')",2.5007010969737183e-11,-0.5871124863454448,0.5871124863454448,0.7187057630079303,-0.6884769596502255,0.02,0.6091430084197271,-0.6335185984259823,0.07,0.3940679343499345,-0.6520327118008863,0.21,0.14888408725400987,-0.6510436235741756,0.514,0.04945093893112093,-0.6383346046451116,0.77,0.004448435984019171,-0.6330021189847685,0.98,alpha2
"('Fp1', 'Fz')",1.366369380339412e-11,-0.5825581979074362,0.5825581979074362,0.7393022338720374,-0.6790815922496126,0.02,0.5457538776055594,-0.6642285296188273,0.07,0.3493145606307985,-0.6587543689883276,0.184,0.11500454061249178,-0.6558113802609102,0.524,0.04190408847434227,-0.6422757280139736,0.81,0.002509384175730718,-0.6365562209360199,0.996,beta2
"('T3', 'Pz')",4.186780941559973e-10,-0.5803917810718833,0.5803917810718833,0.7848738667010637,-0.6351624447124823,0.01,0.6423107348010213,-0.6053251600383498,0.044,0.46221954186356545,-0.5977772790109922,0.116,0.19194492477311306,-0.6033691844090051,0.398,0.0806549793804623,-0.5895738286907151,0.654,0.007594437617619578,-0.5840557941672722,0.968,alpha2
"('Fp2', 'Cz')",9.255170590046679e-11,-0.5742807795419538,0.5742807795419538,0.7348811026676088,-0.6806353534929384,0.016,0.5725145815593827,-0.6545923952848122,0.068,0.4007334910561206,-0.6437382140458382,0.152,0.18451344281665744,-0.6340607979329199,0.45,0.06847230299108652,-0.6277618037196344,0.722,0.007537288001154155,-0.6065007435742757,0.966,beta1
"('Fp2', 'C3')",1.0463275350265894e-09,-0.5719217389422584,0.5719217389422584,0.8012342968939223,-0.6133861872215811,0.004,0.6463847627078865,-0.5926165095577955,0.038,0.47183113817382394,-0.591872222408919,0.106,0.20169349796194816,-0.5893069095346528,0.352,0.09717779529528292,-0.5704763224982089,0.614,0.01188861655389321,-0.5662083298400328,0.95,beta1
"('Fp2', 'F4')",8.129869567764786e-11,-0.5707785814050774,0.5707785814050774,0.7642124484565824,-0.6685829730202122,0.014,0.5808668491620361,-0.6452759627523885,0.06,0.42797105659666373,-0.6247726996434451,0.174,0.1857177649683927,-0.6212386612975533,0.444,0.06959379170285163,-0.6127712531964015,0.702,0.008386806480955567,-0.6063348909483575,0.956,gamma
"('Fp1', 'F8')",9.094913557603164e-10,-0.5693230599467795,0.5693230599467795,0.7448408598098849,-0.6600924747434457,0.024,0.5970512823263395,-0.641456312025608,0.072,0.4344693239386174,-0.6413236476660721,0.228,0.24694134728240236,-0.6084150417090283,0.376,0.14638071818043039,-0.5928681094023093,0.616,0.016719788034129022,-0.5862975981938817,0.91,alpha2
"('Fp2', 'Fz')",1.2046496925195378e-08,-0.5687301596346364,0.5687301596346364,0.7483305970391463,-0.6617690074986522,0.01,0.6216687355043716,-0.6300907788760337,0.038,0.46992715629739484,-0.6088716067405195,0.13,0.30381550609453833,-0.5856561449557126,0.394,0.1374255963307535,-0.5833641828564327,0.63,0.03410553592659041,-0.5540850563582174,0.826,alpha1
"('F7', 'F3')",5.090640982811527e-10,-0.562705209083737,0.562705209083737,0.7920362878138513,-0.6328679359309888,0.008,0.6177149606012498,-0.6101791690029015,0.034,0.44383326736087836,-0.6104668008066525,0.134,0.20336148426626682,-0.5948809612133877,0.394,0.08217713547612554,-0.5866104309480382,0.638,0.009841356804223352,-0.5796625757161826,0.964,beta2
"('F7', 'Pz')",3.6646993389989828e-09,-0.5583384979794783,0.5583384979794783,0.7903262326616107,-0.623242366397906,0.018,0.6681439948883923,-0.591721100040146,0.06,0.5145452210467057,-0.5846861438299041,0.11,0.2803770626296538,-0.5772678297371695,0.342,0.13681111717542543,-0.5648312309905061,0.546,0.019712254215947987,-0.5651801204013732,0.898,alpha2
"('Fp2', 'O1')",1.2046496925195378e-08,-0.557910179030978,0.557910179030978,0.8149089865038056,-0.6006647318680869,0.012,0.6892324290935772,-0.5610370198387933,0.034,0.5230197143034822,-0.5603870982552287,0.09,0.3269679047814569,-0.5444650523954718,0.29,0.1699389807670504,-0.5428331294205883,0.516,0.027980256576825267,-0.5453514862643699,0.858,alpha2
"('Fp2', 'F4')",5.421727099618917e-10,-0.5561489506943292,0.5561489506943292,0.7374531520838619,-0.6982214713952826,0.02,0.5972554283015541,-0.648994089206228,0.04,0.4372305718792794,-0.6317305119135893,0.116,0.21159818570486005,-0.6038595706124137,0.366,0.06339691525647229,-0.6189767845894585,0.712,0.009568411546337176,-0.5840430455194947,0.956,alpha1
"('Fp2', 'F3')",5.456748203448312e-09,-0.5509813329516764,0.5509813329516764,0.8379174242832312,-0.5886812166904412,0.002,0.67263873887337,-0.5821987773913937,0.022,0.504835908650946,-0.575388628053834,0.078,0.2517278270714146,-0.5599553422853738,0.278,0.105800782264717,-0.5509342540928799,0.57,0.015803808704886967,-0.5499198804133221,0.934,beta1
"('O1', 'O2')",1.5395832775552655e-09,0.5507345653111653,0.5507345653111653,0.714032205675201,0.7186847068277582,0.034,0.5556132169814226,0.6845720424722492,0.112,0.43266611989785414,0.6542918224009112,0.232,0.258763937998203,0.6385039697738037,0.476,0.1532370657748731,0.6103999004296404,0.606,0.02559146702137869,0.6042555792495218,0.858,alpha1
"('F3', 'T3')",2.172032170158543e-09,-0.5501531281638405,0.5501531281638405,0.7783617186156265,-0.6524864123712839,0.012,0.6843291797786075,-0.5839236157290201,0.038,0.48443213484550823,-0.5966330023273322,0.112,0.22803531013130676,-0.5919065712159005,0.342,0.08912272115142474,-0.586209172871295,0.62,0.012318685609087006,-0.574613644101764,0.946,alpha2
"('F7', 'F8')",1.908164607918437e-09,-0.550006366971284,0.550006366971284,0.8018578745802785,-0.6197668081602498,0.02,0.670162695409971,-0.5787184996031467,0.052,0.49834129708709174,-0.5890359946911067,0.146,0.23958797959358155,-0.59307387933795,0.394,0.13338377938195378,-0.5729350599787417,0.582,0.017496022013434986,-0.5726725740864749,0.934,alpha2
"('O2', 'Pz')",3.2257382265185186e-09,0.5491010498020668,0.5491010498020668,0.8233477507620296,0.6108807616488369,0.008,0.6741461956082546,0.5901698821275314,0.018,0.5130037543623266,0.5847710513418128,0.1,0.25230648520577553,0.5648533139451645,0.292,0.11926340892821193,0.5616958395645312,0.558,0.016041578672970652,0.5413597382544505,0.912,alpha1
"('C3', 'C4')",1.1559252864332199e-10,-0.5482065687965662,0.5482065687965662,0.761771991881118,-0.6730727188792719,0.016,0.6052942814105262,-0.6528405276483252,0.09,0.4200101784526379,-0.6531368809947695,0.192,0.17771303739620709,-0.6383544935153078,0.454,0.0754982885062792,-0.6174318880330363,0.71,0.008319337883201874,-0.6088312739421352,0.958,alpha2
"('T4', 'C4')",2.2581913572082726e-08,-0.5465674033799989,0.5465674033799989,0.8245603986844995,-0.5824911335608258,0.008,0.6849748339852997,-0.5713511877769204,0.032,0.5768404924917764,-0.5405877432248972,0.096,0.31796439417318506,-0.5419720172955723,0.246,0.174354786989777,-0.5254245229451291,0.466,0.0365531221059142,-0.5196286323942182,0.84,beta2
"('F3', 'O2')",2.286989492154722e-09,-0.5437053484682336,0.5437053484682336,0.7978030490976599,-0.6082206524168113,0.018,0.6804557797474232,-0.5675859667515428,0.04,0.49418555522468977,-0.5840892732680804,0.108,0.2761474698370432,-0.5674012598233706,0.32,0.11905041406473334,-0.5572531767610238,0.552,0.020962483261870345,-0.5548441728894543,0.902,alpha2
"('F7', 'Fz')",8.504548193253124e-10,-0.54308585011162,0.54308585011162,0.7797939736221213,-0.65285555962745,0.014,0.6275664169983481,-0.6134764527720701,0.048,0.46581511670844916,-0.6041867577896946,0.13,0.21631259348956783,-0.599631705301784,0.378,0.08820473240053134,-0.5842355128495558,0.642,0.01565569046254829,-0.5839160863356186,0.942,alpha1
"('F4', 'C3')",3.726009355710341e-10,-0.5403315462350416,0.5403315462350416,0.7684203995151242,-0.6490112096622026,0.014,0.6507191803951444,-0.6091506494095694,0.056,0.4596247432987647,-0.613288984106965,0.16,0.20525353564918974,-0.601033781806674,0.368,0.09054968126292462,-0.5940402271718535,0.658,0.009889013889106226,-0.5929354716404459,0.938,alpha2
"('Fz', 'T6')",2.713450842841091e-09,-0.5400521425987739,0.5400521425987739,0.800257363308364,-0.6048862830164053,0.018,0.6766430451135297,-0.5776829926121175,0.032,0.5049419108372138,-0.5787626031874585,0.112,0.2636778809040452,-0.5679481303737415,0.302,0.12315688583835221,-0.5535836023883547,0.558,0.015065587166745933,-0.5563458202364043,0.92,alpha2
"('T5', 'O1')",6.516797854383852e-10,-0.5387809980301643,0.5387809980301643,0.7554281536197351,-0.6857210264182888,0.016,0.5524017532208232,-0.6745066308995403,0.072,0.46040494585393216,-0.6336610246190841,0.172,0.24305399170416084,-0.621398078814473,0.414,0.11412587293686918,-0.6027532925786132,0.63,0.017423870604185338,-0.5921906776538438,0.926,alpha2
"('Fp1', 'F7')",1.0977596070323711e-09,-0.5380123642855031,0.5380123642855031,0.7848590417054587,-0.6538961114858409,0.008,0.6041288018462516,-0.6334048023509298,0.036,0.4460477112538738,-0.6107871693811423,0.11,0.20233419502238129,-0.5950079403882658,0.348,0.07817701948874814,-0.5856452489350946,0.644,0.00956735457868939,-0.5790275611634687,0.954,alpha1
"('Fp2', 'T6')",5.076210655632745e-10,-0.5333733111126422,0.5333733111126422,0.7768734782062587,-0.639613097120837,0.02,0.6442495136329508,-0.6104406515776803,0.05,0.4857725682512125,-0.5975459581049184,0.14,0.23015710196087039,-0.5976466691273603,0.374,0.08969251061164016,-0.5823318441617393,0.634,0.01252248624436198,-0.5818658801058765,0.934,alpha2
"('Fp2', 'C4')",4.47894136317066e-09,-0.5284824182369847,0.5284824182369847,0.8279769962703578,-0.5848775001977586,0.01,0.6653314468508756,-0.5841954189802168,0.044,0.5325906651782644,-0.5642797672899241,0.1,0.27221714164150856,-0.5676316136433435,0.332,0.1255671304425533,-0.5563603880101884,0.566,0.019649633604285403,-0.5429735238160519,0.908,beta1
"('F3', 'F4')",2.9207371866324097e-08,-0.5279954952906667,0.5279954952906667,0.8159402586312523,-0.603305522982389,0.006,0.7019766104182271,-0.5579743956749134,0.026,0.5905094468891919,-0.5484135847256546,0.08,0.3487682768725585,-0.5366190919292236,0.25,0.17157987772971245,-0.5326869573712405,0.478,0.03067282991930392,-0.5366615936164252,0.84,alpha1
"('Fp1', 'T3')",4.0778452653440955e-08,-0.5271691028024603,0.5271691028024603,0.8269618030865307,-0.5784941194170282,0.012,0.7400442807444941,-0.5368954737413932,0.03,0.5958447661515718,-0.532996908648895,0.074,0.33312943821506347,-0.5352971903608784,0.25,0.16921325379999844,-0.5327148264937108,0.488,0.03355052518315621,-0.516213230345556,0.83,alpha2
"('T4', 'C4')",5.5630534347877855e-08,-0.5271146982549071,0.5271146982549071,0.8659918496900278,-0.5694675047968104,0.006,0.7252420343376182,-0.5566035840647858,0.014,0.6114088744296029,-0.5291059644600862,0.044,0.3216130511271661,-0.5301327738342305,0.2,0.16364913905848544,-0.5147925058833469,0.43,0.0315915123019404,-0.5122361267517191,0.862,alpha2
"('Fp2', 'Fz')",5.090640982811527e-10,-0.5241369812978942,0.5241369812978942,0.7650504798343843,-0.6435337373523142,0.012,0.6311745403733383,-0.6176944012865991,0.052,0.4382016675230504,-0.61492061397545,0.138,0.21023134933844115,-0.6000797846628246,0.374,0.09022388297642292,-0.5948231759827959,0.658,0.010116839576219974,-0.5844672035251297,0.96,beta2
"('Fp1', 'F4')",1.1563870495915087e-09,-0.5233890533064013,0.5233890533064013,0.811572682334993,-0.6082787834097296,0.016,0.6174610978189191,-0.6179218257988728,0.052,0.47270387825810956,-0.593261534101372,0.116,0.2461427285736803,-0.5791371576511843,0.336,0.09830183646958708,-0.5768647615128152,0.6,0.012872510699377978,-0.5698621239444432,0.948,beta1
"('F7', 'P4')",8.129878285179822e-08,-0.5229646886861721,0.5229646886861721,0.8534648868063537,-0.5369053501973531,0.004,0.7405271406583576,-0.5324228146006523,0.02,0.5902736903412382,-0.5242243403390819,0.066,0.3731058451170463,-0.5175474564001419,0.212,0.2099077767925046,-0.5051448074095213,0.398,0.04210254603382293,-0.507147697101999,0.8,alpha2
"('Fp1', 'Cz')",8.978880510300452e-08,-0.5203563410980993,0.5203563410980993,0.8360548889344489,-0.5593874351187813,0.006,0.7237452946569032,-0.5518729928547935,0.034,0.5955829665801526,-0.5309159630708383,0.066,0.3769617594807818,-0.5212664601116516,0.202,0.19424642941577755,-0.5202830801378304,0.454,0.04185012046533074,-0.5071941637483945,0.798,alpha2
"('O2', 'P3')",1.1415688438056458e-09,0.5192603309804169,0.5192603309804169,0.8070437974740906,0.6485626946537244,0.02,0.6209167460937945,0.617037383010026,0.04,0.46531760493155483,0.60968682341127,0.128,0.22503664908795815,0.592441183857533,0.354,0.09437210254658464,0.5898219418816991,0.626,0.013514628491317461,0.5737916736411409,0.924,alpha1
"('F3', 'C3')",2.6710314681734735e-08,-0.5153805193778613,0.5153805193778613,0.8466544882787166,-0.58684960117744,0.002,0.7274054633422921,-0.5572766695676964,0.02,0.5394625257233069,-0.5633269377880847,0.042,0.2622592319535303,-0.5475713914093273,0.212,0.12675517916799628,-0.530485767187313,0.472,0.01875388240302891,-0.5259063221725038,0.922,beta1
"('Fz', 'F4')",8.113587938349833e-08,-0.5133560710205646,0.5133560710205646,0.7311325447426913,-0.693716161374696,0.026,0.586194040461422,-0.6414044649541938,0.074,0.4609179954501784,-0.617207851499692,0.156,0.307305725178229,-0.5984475453791807,0.412,0.23927768955385545,-0.5799368772891438,0.58,0.08538114412750855,-0.5645958221301588,0.712,alpha1
"('F8', 'Cz')",3.5538546910461e-08,-0.5127277150311572,0.5127277150311572,0.8216576587356781,-0.5724312767065726,0.008,0.6991287059444586,-0.5653079997155476,0.042,0.5620266312201425,-0.5540784476709605,0.11,0.349187447630286,-0.529557059851756,0.236,0.20232175346584835,-0.5319803229034764,0.46,0.040857063600886805,-0.5220328880187944,0.826,alpha2
"('Fp1', 'O1')",2.264884528298999e-08,-0.5081678017472544,0.5081678017472544,0.8380112854393342,-0.5778504956090533,0.014,0.7122665246633763,-0.5595502397044487,0.026,0.5657089185400581,-0.5422263622586185,0.08,0.32735686264276637,-0.5410321636366092,0.25,0.17869515833603447,-0.5197671208385768,0.444,0.02902760155673686,-0.5276406049745556,0.856,alpha2
"('Fp1', 'F3')",5.574213549921997e-09,-0.5067558085124272,0.5067558085124272,0.8252795236467272,-0.6275350062600984,0.004,0.683730526529,-0.5975740624611612,0.01,0.4810751176977948,-0.5989167428655257,0.054,0.22033902585415815,-0.5729300510956169,0.258,0.06545892730286358,-0.570528007283944,0.608,0.008824823110746555,-0.5590373568603422,0.964,theta
"('F3', 'T3')",1.312853761846801e-06,-0.5006582093687635,0.5006582093687635,0.8512415733885255,-0.5440584667555677,0.012,0.7876222606497341,-0.48073210544076345,0.026,0.6289722984507182,-0.5066618507069849,0.08,0.47766403301317834,-0.4805472041874508,0.152,0.2815009129656605,-0.4802501737170724,0.352,0.08352546588853337,-0.4648365551564429,0.656,beta1
"('C3', 'Pz')",2.1448195907239105e-07,-0.4994288875988283,0.4994288875988283,0.8630685765846414,-0.5466766554329676,0.008,0.7624392127605271,-0.528177582279016,0.012,0.6577192582779331,-0.5050273111800003,0.034,0.3959577675626435,-0.505347441680053,0.196,0.22518251946860093,-0.49802484593996876,0.372,0.052897106790097445,-0.4845435506576975,0.756,alpha2
"('F7', 'C3')",9.99105698131986e-08,-0.4991111918766354,0.4991111918766354,0.8045891850744672,-0.5920915361603281,0.018,0.7031950977821507,-0.5475368676784852,0.046,0.5813774451918798,-0.5404610614704672,0.098,0.38220703794977257,-0.532278920178702,0.272,0.22085740659212705,-0.5325668745055714,0.458,0.04895690643270479,-0.5204863341068142,0.784,alpha2
"('Fp2', 'C3')",1.061244794734164e-08,-0.4984648034961664,0.4984648034961664,0.8005591247200775,-0.5971530805585157,0.012,0.689702962877703,-0.5690335713513991,0.028,0.5341441004194198,-0.5666125668825022,0.104,0.30041912818350613,-0.5437431366720636,0.258,0.1516524890092197,-0.544295822549452,0.534,0.026946626472105037,-0.5374581273854206,0.872,alpha1
"('T6', 'Pz')",4.034888917525106e-08,0.4965222340753995,0.4965222340753995,0.8596717445305859,0.5659025146677852,0.004,0.6911004629384254,0.5519486633247411,0.018,0.5589301321670034,0.5534544265102077,0.084,0.32949971368777126,0.5420197901778075,0.238,0.21087571929652105,0.5200925486664306,0.432,0.040699990352839915,0.518126618256841,0.84,alpha1
"('Fp1', 'F3')",1.2750821952556029e-07,-0.49564607071121314,0.49564607071121314,0.90180489325506,-0.5334267305033803,0.0,0.7892451252591238,-0.5203315029486648,0.002,0.6098238844115459,-0.5181991021813986,0.01,0.3676646437668681,-0.49321522132819445,0.11,0.12691859882512843,-0.5093722465202885,0.408,0.026228209236963135,-0.4976331179917133,0.862,delta
"('O1', 'O2')",1.2937823966106162e-07,0.49515367773951374,0.49515367773951374,0.8381864273894023,0.5687893960579475,0.016,0.7003709935272632,0.5744449149073755,0.054,0.5650062896495648,0.5553543047605889,0.11,0.3931117419220554,0.5307693210507879,0.266,0.21314115589120336,0.523610471868503,0.43,0.06731710635669194,0.5001908231979617,0.74,delta
"('Fp1', 'Cz')",8.344937047823335e-07,-0.4940923938399571,0.4940923938399571,0.8889128833723355,-0.5001330213504163,0.0,0.7842844856727307,-0.49613534183206504,0.014,0.6750140050662735,-0.4845277000784565,0.048,0.4583555044717831,-0.47117857230221794,0.152,0.2507910875122665,-0.48522734194840683,0.322,0.07302038106696983,-0.46991455302169904,0.702,alpha1
"('Fz', 'O2')",2.897601592283939e-07,-0.48902588380037615,0.48902588380037615,0.8692890792989925,-0.5261536425808977,0.006,0.7861931521666766,-0.49451304670304935,0.002,0.6553279537316793,-0.4976733237347945,0.058,0.41006934159915254,-0.4941339889007595,0.194,0.23150834320618524,-0.48199304955268524,0.31,0.060894257236562735,-0.47441444897865326,0.75,alpha2
"('F8', 'T4')",1.944607275576225e-07,-0.4889566023835261,0.4889566023835261,0.892182885855783,-0.4973755749982319,0.0,0.7660725346898141,-0.5176375922321053,0.014,0.6075115486807064,-0.5205735826613438,0.07,0.37014033211724934,-0.5055476791270449,0.18,0.22121885960123683,-0.49087749025833666,0.378,0.0444313500568285,-0.4914893197963333,0.78,beta2
"('F4', 'Cz')",1.2275243312382007e-07,-0.4878545669218983,0.4878545669218983,0.8251987815232343,-0.5844320480216866,0.01,0.7425259478485854,-0.5405763672364682,0.02,0.6054949097640453,-0.5388925934927181,0.076,0.3701829553806304,-0.52402344901418,0.24,0.20512462634719905,-0.5144997172130483,0.42,0.039612002721335395,-0.5082670495411706,0.812,beta1
"('F3', 'C4')",7.656588159266571e-08,-0.4871923127577366,0.4871923127577366,0.8304956790713701,-0.5740603045425619,0.012,0.7269825966653369,-0.53415523220743,0.03,0.6098867410233199,-0.5180998140158783,0.078,0.3442697194563797,-0.5316253715006035,0.224,0.1904032026592328,-0.5239546074546337,0.43,0.040088068260106385,-0.5135859197479923,0.818,alpha2
"('Fp1', 'Fz')",1.4375214779271599e-07,-0.4871430710953043,0.4871430710953043,0.9235610924237495,-0.5076067796040564,0.0,0.7835742791528106,-0.5076291600824758,0.004,0.6238927795430211,-0.5100617831669554,0.022,0.36777216698526555,-0.4990608469813208,0.136,0.14487635861136694,-0.5020446399909998,0.38,0.026785641066136144,-0.4939075826542181,0.858,delta
"('Fp2', 'T5')",2.332797407922695e-06,-0.4863696229628792,0.4863696229628792,0.8870624321499809,-0.49887062317331804,0.006,0.7963186682610938,-0.5003253065059315,0.028,0.6791835778766582,-0.479969923306967,0.056,0.5098696748774604,-0.4596559265695704,0.16,0.3051273735317097,-0.4575181389569803,0.264,0.10808664424482337,-0.45394577984872775,0.596,alpha2
"('T5', 'O2')",1.2951426129157253e-06,0.4844046636531548,0.4844046636531548,0.8622466250836203,0.5366831258248074,0.004,0.7708054262215275,0.5008069494219509,0.012,0.641547217160588,0.49867243747749646,0.062,0.4488917935780215,0.4880395074319617,0.166,0.29644033154517396,0.47443995375360953,0.34,0.09428580363027565,0.46412583186649764,0.654,alpha1
"('T6', 'C4')",1.3893096859703568e-06,0.47784066034359174,0.47784066034359174,0.9048661907456672,0.503574303398322,0.0,0.796818470425886,0.491491854077011,0.006,0.6786007195399919,0.489885269513602,0.036,0.4657113105384219,0.4744015999938722,0.124,0.32464157012795164,0.4558041611465733,0.256,0.0842829655605773,0.45984484178750573,0.662,alpha1
"('Fp1', 'F7')",2.8340728466434177e-07,-0.47601021291781737,0.47601021291781737,0.8794090764934956,-0.5283715440003103,0.002,0.7685613569180721,-0.5076340213733765,0.012,0.642574343872809,-0.5078158570615252,0.038,0.37774407635768686,-0.511840500023892,0.19,0.2422905795534924,-0.4839583838187274,0.35,0.05460272791533713,-0.48398805318604665,0.746,gamma
"('F7', 'O1')",8.977236474777026e-08,-0.4737337271362179,0.4737337271362179,0.8578643633848002,-0.5481119662651568,0.012,0.7610202970534516,-0.5176652904276616,0.018,0.6144310936170603,-0.5164655567331813,0.068,0.35561309463434143,-0.5173681541030383,0.23,0.2060653069239844,-0.5058161939237173,0.402,0.038390506580334924,-0.5043838574096549,0.812,alpha2
"('F4', 'C4')",1.312853761846801e-06,-0.4720781582102487,0.4720781582102487,0.8621071877438069,-0.5455616252949197,0.004,0.7908553136208755,-0.5141864903835491,0.016,0.6438945359935987,-0.5096247145541555,0.066,0.44560787749718184,-0.4943634664077617,0.164,0.26886405815040465,-0.4824984945971369,0.32,0.06793195913248097,-0.46911808444790604,0.68,beta1
"('T6', 'O2')",9.324581422450472e-07,-0.47068869939746294,0.47068869939746294,0.883087537001987,-0.5351394334594182,0.004,0.7610728125974678,-0.5255198153712136,0.01,0.6512074208677504,-0.5048586687854343,0.038,0.44757329871426227,-0.4797144701514522,0.114,0.261396897813369,-0.47141449562871235,0.316,0.06219942295617037,-0.46946799513828247,0.694,beta2
"('Fp1', 'F4')",1.3690983206544812e-06,-0.4658066881516872,0.4658066881516872,0.9020688848071529,-0.4921767534256337,0.002,0.8130435459851258,-0.4743091729770318,0.006,0.6819025019379186,-0.48071950689034715,0.024,0.47565972418947133,-0.46281080992086243,0.104,0.26422786568359746,-0.46236316767802793,0.272,0.07335832288165771,-0.46065165408201947,0.702,theta
"('Fz', 'Cz')",9.500435261155229e-07,-0.4646751658842666,0.4646751658842666,0.848323998975091,-0.533271463063704,0.018,0.7570764397083984,-0.5150851278951681,0.022,0.663904543870503,-0.48507278904588047,0.07,0.4512494433836291,-0.487933232759188,0.19,0.28958956510466816,-0.4839972072044355,0.368,0.08141703919937925,-0.47448804661741373,0.654,alpha2
"('F4', 'O1')",4.165382023783326e-07,-0.46390268447520133,0.46390268447520133,0.8894264902929253,-0.4877252186215133,0.0,0.808274418443456,-0.4719323677386625,0.006,0.654789848349523,-0.48728532064633695,0.036,0.4334302021807736,-0.4793112164124945,0.122,0.24503470669336502,-0.4654980762821053,0.272,0.05857530499992296,-0.47168280487026554,0.74,alpha2
"('F4', 'T3')",1.5050195477609622e-06,-0.4631239129780106,0.4631239129780106,0.8650084538367072,-0.5063932942777097,0.008,0.7885951470967134,-0.47942336148379533,0.028,0.700865756721232,-0.4651776906490099,0.044,0.44674792197183666,-0.4815295089890314,0.17,0.3032110651100211,-0.4625862923676867,0.288,0.09993302438159463,-0.4591991835055112,0.654,alpha2
"('Fz', 'F4')",2.1232709378962554e-07,-0.46239760222657766,0.46239760222657766,0.8492285795024858,-0.556704688948096,0.002,0.7171227667948663,-0.5464089578421955,0.016,0.6104519916082491,-0.5219613360810673,0.048,0.36738121704825655,-0.5189999677216768,0.21,0.22207287854753782,-0.5066639377681149,0.408,0.04222520805210635,-0.4993242782996422,0.79,beta2
"('T4', 'Cz')",1.5050195477609622e-06,-0.46097027828520876,0.46097027828520876,0.8987476829600216,-0.4976167420598353,0.004,0.7783679626292805,-0.5015497434754913,0.014,0.7067429251080313,-0.46752490184813683,0.038,0.480269937745991,-0.4640595145876742,0.128,0.32100210102560583,-0.4521749818047929,0.282,0.0997761462570988,-0.4520721923060607,0.622,alpha2
"('Fp1', 'C3')",6.22192920984929e-08,-0.4599432769749054,0.4599432769749054,0.825894926771069,-0.5841740359640073,0.0,0.6951134837679038,-0.570713509446872,0.028,0.5650292947498778,-0.5436964930017634,0.084,0.35400885448473496,-0.5352760985549453,0.266,0.19141179463964764,-0.5254723173593133,0.464,0.042388794170018486,-0.5229447851678437,0.8,alpha1
"('Fp1', 'Fp2')",4.780790375619889e-07,-0.45485444107927525,0.45485444107927525,0.8866125955092873,-0.5107309036125867,0.002,0.7646447603996658,-0.5054120759810631,0.008,0.6533356734956824,-0.49047470633425244,0.04,0.42438576281822366,-0.48401623946797956,0.136,0.2654708374190884,-0.4665387409464615,0.296,0.06363006734373232,-0.47423603301555706,0.73,beta2
"('Fz', 'C4')",3.601301407067438e-05,-0.4500658874458696,0.4500658874458696,0.8812107825406679,-0.4765175303172113,0.008,0.8237447281329359,-0.45315150077599686,0.02,0.7560584143428819,-0.42748102868317356,0.044,0.5701988730980811,-0.43695695024410774,0.126,0.43119159138229113,-0.42874277407552497,0.186,0.19522168204347223,-0.4086317585621986,0.43,alpha2
"('F4', 'T4')",7.181204488003586e-07,-0.44957767783644637,0.44957767783644637,0.8748577942763698,-0.5041494118552317,0.008,0.7592435936575131,-0.5055639650971189,0.02,0.6561258499892483,-0.4848155415469549,0.062,0.4456927587130405,-0.48728358148984535,0.186,0.29269784803397636,-0.46889389006835164,0.312,0.09052535198990595,-0.4629761231749588,0.652,beta2
"('F4', 'T4')",5.103232473680303e-07,-0.4480556800153314,0.4480556800153314,0.8578118530123001,-0.5271854995379188,0.006,0.7442369562573145,-0.5181344435457403,0.028,0.6471179652888026,-0.5007894472177944,0.048,0.4456630825552323,-0.4869301412134331,0.176,0.2551298106832665,-0.48156889260587704,0.322,0.07033313994122418,-0.47770022484178964,0.714,beta1
"('Fp1', 'T3')",7.968492053375955e-06,-0.4476883040951181,0.4476883040951181,0.8819580832185697,-0.47851131051958923,0.01,0.8263125467767726,-0.4574803236494077,0.016,0.7267437663849046,-0.4422258321386658,0.034,0.5316621807555386,-0.44749743968591593,0.1,0.3757192939715002,-0.43506828318677326,0.236,0.1483296965255149,-0.4313780416211147,0.524,theta
"('F7', 'F4')",4.602392480993156e-06,-0.4463650130951149,0.4463650130951149,0.8599235775613147,-0.518185922142546,0.014,0.7975541483577637,-0.49269986651513115,0.018,0.7081635267932078,-0.46596061905846103,0.052,0.49820748085953676,-0.4586491715203459,0.128,0.3529835418863995,-0.44773718726115236,0.24,0.1350911093452607,-0.44627910902723783,0.558,alpha1
"('T3', 'T6')",2.6486978213155085e-07,-0.4463119877825693,0.4463119877825693,0.8864517217300429,-0.5159724600776087,0.008,0.7731274241715137,-0.5112132777175472,0.022,0.6276649518943802,-0.5091202823596287,0.054,0.4366963152320035,-0.48354423606289143,0.152,0.2501094068439876,-0.48466658876626395,0.348,0.05538812838474875,-0.4795220737844052,0.744,alpha2
"('Fp2', 'F3')",1.7043034036985374e-05,-0.44529672573718526,0.44529672573718526,0.9046110022025854,-0.4635451322698542,0.0,0.834354756685454,-0.452149795694796,0.01,0.7205297935672551,-0.45878288004084405,0.026,0.5552821219059433,-0.4299784155302551,0.074,0.3499402424629578,-0.4382841976818063,0.206,0.15896692317890926,-0.41828411628586326,0.486,theta
"('F4', 'F8')",1.5082336316652054e-06,-0.44503514803018634,0.44503514803018634,0.8169756040418927,-0.561579780470993,0.01,0.7101690899099675,-0.5420870983149473,0.04,0.5968498944269097,-0.5356616526659144,0.11,0.45498037723447166,-0.5039509538619675,0.22,0.3040966205302909,-0.49134129371687496,0.356,0.14263856094374897,-0.46421803592073235,0.598,alpha1
"('O2', 'Cz')",1.1852605210725458e-06,0.44173249628684114,0.44173249628684114,0.8812908781903656,0.5346319244932924,0.002,0.7736760088533806,0.507749058178656,0.016,0.6519279543034056,0.4999887711234367,0.05,0.42974333803420667,0.48896731851162323,0.164,0.30363745704045664,0.4737466692522611,0.342,0.10991534594085847,0.4615000676986437,0.596,alpha1
"('O2', 'Pz')",7.540106162999444e-07,0.4416674012997198,0.4416674012997198,0.9038320366621434,0.4924713884838075,0.0,0.7833062006044311,0.5092707316058176,0.014,0.6812953213970668,0.4875381867173925,0.032,0.4284132974093359,0.4851427642681007,0.136,0.2549835098557228,0.47225314778350486,0.3,0.07820402777832729,0.4583959131313789,0.658,delta
"('F3', 'T3')",9.513867111014639e-06,-0.43984246289178336,0.43984246289178336,0.8451029098057017,-0.5187640256031602,0.008,0.797151900878616,-0.4803329325650297,0.028,0.6956439048745705,-0.4849474173243892,0.092,0.5433357681697877,-0.45840919564984345,0.15,0.357728723693187,-0.4610652326325002,0.274,0.15361273046384183,-0.4378992534348308,0.542,beta2
"('F3', 'C3')",1.312853761846801e-06,-0.4386396366549272,0.4386396366549272,0.9225637740327897,-0.47646310018671256,0.0,0.8345140251996448,-0.4651573701829904,0.002,0.712310279730054,-0.46371785348310207,0.022,0.44283743318516344,-0.47361381696240146,0.104,0.27293058027238754,-0.45433402322014826,0.256,0.055982861974660555,-0.4650003515010078,0.706,beta2
"('O2', 'C3')",5.259318582299078e-06,0.43787759487628464,0.43787759487628464,0.8836315525472882,0.500202936345397,0.006,0.8224367380454282,0.47060453913580186,0.002,0.7034704226741578,0.4771267690316597,0.042,0.5206100189765765,0.44937951941649745,0.106,0.36712359855958476,0.4356160939577324,0.196,0.15193527387514325,0.42772791849801417,0.502,beta2
"('Fp2', 'F8')",9.961149226178233e-07,-0.43760006847867655,0.43760006847867655,0.8867574681971233,-0.4988818312382592,0.004,0.7892167640099106,-0.48297018960361116,0.012,0.6717298505564995,-0.4806538123542948,0.028,0.44643979387071425,-0.47417046327215884,0.116,0.2614639640097944,-0.47088396567192825,0.292,0.070369931927613,-0.4628523864703064,0.698,beta2
"('F7', 'Fz')",2.4512503476441285e-05,-0.43727151985372403,0.43727151985372403,0.9149036214430541,-0.4501683070983834,0.004,0.8618433475962071,-0.42099602697878913,0.004,0.7587719262851037,-0.42865708230804894,0.03,0.5935071937751031,-0.4198283767815066,0.062,0.39956054483844444,-0.4148108122709574,0.172,0.1689595177037301,-0.4067013329686126,0.434,theta
"('F3', 'F4')",1.7846002934838419e-06,-0.4342220569440559,0.4342220569440559,0.8956217951564215,-0.5081402395974087,0.006,0.7926006411611474,-0.48396004113167546,0.008,0.6815681070693375,-0.4777231871376715,0.048,0.49119347010916864,-0.45992656434395185,0.124,0.30859471358815493,-0.45630183611590863,0.264,0.07731212014733521,-0.4573185878071668,0.654,beta1
"('Fp1', 'Fz')",3.157607623188138e-07,-0.433265591760971,0.433265591760971,0.9012664242944091,-0.5145954282364402,0.0,0.7982738018340225,-0.48513752953366734,0.004,0.6557828769483643,-0.492784573953888,0.024,0.39925445880856847,-0.4859802402965379,0.154,0.17955693831697966,-0.4911413719476287,0.352,0.040674932976769176,-0.4874526498731007,0.792,theta
"('F7', 'C3')",3.34614764163269e-06,-0.43312665176183485,0.43312665176183485,0.8989916733074703,-0.48184867630466033,0.0,0.8141786447600239,-0.4674530252656686,0.012,0.7093428090495921,-0.46211036600664673,0.028,0.511782871389117,-0.44937034809015,0.108,0.34179588880521716,-0.4380050100400344,0.234,0.09270274406774624,-0.44920363494045734,0.606,beta1
"('Fp2', 'C3')",6.089120420980056e-06,-0.4329705174732158,0.4329705174732158,0.9099401386750696,-0.45716459804555915,0.0,0.8503234113045778,-0.43860797972593674,0.004,0.7087143431824497,-0.45400867862314426,0.036,0.5558921401701126,-0.43026509811768127,0.076,0.3227483969113622,-0.44369419452972725,0.256,0.1310345630501328,-0.42703123336719206,0.574,delta
"('F7', 'C3')",4.962311900210784e-06,-0.43101054000390676,0.43101054000390676,0.9040374990853622,-0.47652822950578466,0.002,0.8274898074334406,-0.4610463823505451,0.002,0.7403904191041062,-0.4313242314589156,0.014,0.5421166075847329,-0.43125330139894685,0.072,0.33702686293336975,-0.43517169290609825,0.228,0.11786338973599156,-0.4299723420488398,0.576,alpha1
"('F4', 'T4')",3.037720677038535e-06,-0.4305925784161283,0.4305925784161283,0.8782466434893753,-0.5137854183865436,0.006,0.7695109317267098,-0.5051136153898321,0.02,0.7117375080268588,-0.47510916406708575,0.044,0.49487524128864346,-0.4786432937552431,0.156,0.33222335449985696,-0.45028759816011577,0.252,0.12211462700004148,-0.44428728346909124,0.572,alpha2
"('Fz', 'F8')",7.204988481144751e-06,-0.4303764726744159,0.4303764726744159,0.8503282292694287,-0.5245766399112789,0.004,0.7602811587194949,-0.5089058620942092,0.016,0.6408874351938983,-0.4963947566721049,0.064,0.5072795120364382,-0.4631425969439871,0.14,0.3561812211596641,-0.4632778912769704,0.292,0.17512613283968936,-0.4310731323087906,0.502,alpha1
"('F7', 'F3')",4.053085872251232e-06,-0.43010422619321603,0.43010422619321603,0.923681916740651,-0.49595394401500176,0.0,0.850795333633973,-0.4732707967525511,0.004,0.7217492481745448,-0.4741873424903282,0.014,0.4835705801806111,-0.45922721208238937,0.086,0.25579144434056017,-0.46344678310180454,0.226,0.07364072298473313,-0.4435859246487079,0.618,theta
"('O1', 'O2')",1.1518943582101096e-05,0.4300904916005499,0.4300904916005499,0.8777473122460949,0.49760300435312227,0.004,0.7689021686106391,0.49555392656499897,0.016,0.6716033093419078,0.4837538576332443,0.066,0.5368581293035831,0.452952405003072,0.13,0.3841016253483844,0.44177529679389094,0.242,0.17891047161348722,0.43096324735980746,0.482,theta
"('Fp2', 'Fz')",5.7503574278587807e-05,-0.4297702025679717,0.4297702025679717,0.9081979829207415,-0.4638079062633586,0.002,0.8375644688854166,-0.4415991176378189,0.0,0.7258665243590192,-0.4416322320701057,0.024,0.5654660257689751,-0.419003784817189,0.08,0.36526921515040756,-0.43807823892939085,0.238,0.2244491892132687,-0.4046931317225809,0.446,theta
"('Fp1', 'Cz')",2.1764866924789025e-06,-0.4291799409509619,0.4291799409509619,0.8937627871343314,-0.47960293235155577,0.006,0.7877291833036787,-0.47791152421403327,0.01,0.6973659636673574,-0.46363492327331723,0.034,0.48281567984702056,-0.4672726451467125,0.158,0.31117829713263473,-0.45886545335835466,0.304,0.09064675275770713,-0.45823391259161533,0.662,beta2
"('F3', 'C3')",5.589121216008247e-06,-0.42885214935400817,0.42885214935400817,0.9357308289477259,-0.4684323037201128,0.002,0.8581356702139656,-0.44611670505119394,0.0,0.7368123481153974,-0.4620442851318495,0.016,0.49749588396666994,-0.44837386736953316,0.048,0.28377209085923505,-0.4505451994857123,0.206,0.08659668068644336,-0.4352709629100454,0.562,delta
"('F4', 'C3')",3.681150345058796e-06,-0.4283840281979251,0.4283840281979251,0.8872041899132763,-0.4952105558216201,0.004,0.8189658135335465,-0.4695094451606636,0.008,0.6994081355296544,-0.46568405997587203,0.04,0.49168098704433943,-0.45364188013461365,0.11,0.329885592818647,-0.4440217484697205,0.242,0.09426370901958368,-0.44607010743529074,0.626,beta1
"('Fp1', 'F4')",5.684240325961649e-07,-0.4278800081154869,0.4278800081154869,0.8758775384503515,-0.5152644375207515,0.012,0.7471907875718795,-0.504907003099031,0.026,0.6446542976902723,-0.4915035492996769,0.068,0.45661232092643095,-0.4826179794489359,0.17,0.27134595057412736,-0.4738711694745181,0.332,0.06689267713615307,-0.47736549379726034,0.736,beta2
"('Fz', 'Cz')",1.8726317169610706e-06,-0.4278604955792017,0.4278604955792017,0.8423335779725951,-0.561687980524427,0.004,0.7586315682205859,-0.5201614414033202,0.026,0.614431828895603,-0.5134147488960822,0.07,0.4276833403168781,-0.5023218847983799,0.208,0.3144208092970885,-0.49222982356499256,0.362,0.11660392213100236,-0.47128799250032577,0.634,beta1
"('Fp1', 'C4')",1.1518943582101096e-05,-0.42761839640223326,0.42761839640223326,0.9160389772342166,-0.4363680828774413,0.002,0.8281514311855328,-0.44194576253448936,0.016,0.7577077246414564,-0.4182624822532195,0.028,0.5575682151016407,-0.4300129375515853,0.1,0.3778034432552112,-0.4248649840042427,0.208,0.15827666516491445,-0.4175255937691093,0.486,beta1
"('Fp2', 'Cz')",9.592791223895116e-07,-0.4276009695543593,0.4276009695543593,0.8745500957390893,-0.5028498458366977,0.004,0.7861739275559576,-0.4976119160726621,0.012,0.6761830996393865,-0.4829940393072722,0.054,0.47501481705671594,-0.4701782930705581,0.134,0.2643360550508193,-0.48199021342746834,0.34,0.07731274732136499,-0.46565458267116283,0.68,alpha2
"('Fp1', 'C3')",5.355517501110385e-06,-0.4272695435032202,0.4272695435032202,0.8762272393532504,-0.4957098737868158,0.004,0.8214377513270091,-0.47083339363313287,0.006,0.7017998380495375,-0.4613779841036777,0.03,0.5447600418712477,-0.4463957746120648,0.114,0.333371392566439,-0.45300365232551026,0.27,0.1239771283696319,-0.4420847591595203,0.564,alpha2
"('F8', 'C3')",7.026975149817813e-06,0.42709788505822166,0.42709788505822166,0.925715697913983,0.4610855818473746,0.0,0.8272044593822664,0.47044410474630377,0.01,0.7757605200954489,0.4314443531715825,0.026,0.5724902859275375,0.4304246393412907,0.084,0.34681837179201713,0.4387663285122203,0.232,0.11713802895551258,0.4241476945413963,0.512,gamma
"('T4', 'P4')",4.7639444907228244e-07,-0.4269359409805187,0.4269359409805187,0.8543597860514367,-0.5548913360530757,0.006,0.7220045993068791,-0.5360887787036753,0.036,0.6456438698570127,-0.5017868497939363,0.082,0.4242051932901209,-0.4994968683874917,0.19,0.29138836992066414,-0.47571303125558323,0.342,0.0899512225286277,-0.4763925981477791,0.658,beta2
"('T4', 'C4')",5.758563544667964e-07,-0.4257740759819102,0.4257740759819102,0.8621752817774939,-0.5389776562926849,0.004,0.7384106250171556,-0.5254704700728998,0.026,0.6623960183461386,-0.4863149634408409,0.052,0.4133537502441971,-0.4885090004961433,0.164,0.24696274976287308,-0.4855449425484896,0.334,0.06889554319923585,-0.4742999102212727,0.682,beta1
"('F7', 'T3')",2.6486978213155085e-07,-0.4255584002109368,0.4255584002109368,0.8335414773936167,-0.5718492496090883,0.012,0.7535131621468615,-0.5170420464687557,0.022,0.5714503121680877,-0.5481240395745671,0.096,0.3984954011763121,-0.5172901574832424,0.212,0.2273073443613442,-0.5142146680013626,0.418,0.05258412780275544,-0.49558366464354714,0.746,beta1
"('F8', 'Pz')",6.798097569567156e-05,-0.4249696921604397,0.4249696921604397,0.9358282496469218,-0.40668224158179406,0.0,0.8648384355059485,-0.4015865344382545,0.006,0.7972249410607671,-0.401922114365945,0.014,0.6576669455424333,-0.3860048160330914,0.054,0.47431411567986725,-0.3833892395862295,0.124,0.20951965919582125,-0.38876964014382387,0.37,alpha2
"('F7', 'Cz')",1.0087698923548518e-06,-0.42490215961704303,0.42490215961704303,0.8666873405519634,-0.5163589221950126,0.004,0.7603700354492823,-0.5007432806862766,0.018,0.6760234260044616,-0.47796525744981944,0.034,0.45422173517095166,-0.4730538476166329,0.122,0.27915448361956363,-0.4634587581093432,0.304,0.09158643900805452,-0.4645165508218889,0.68,alpha1
"('F4', 'T4')",1.0339068236614342e-05,-0.4231589847516865,0.4231589847516865,0.9091051470845871,-0.4462758512087911,0.006,0.8372295940681218,-0.448807688219841,0.008,0.7475932402006159,-0.4392120151982665,0.018,0.5481789349141555,-0.437942256080488,0.106,0.39880526476521316,-0.42236214478691614,0.168,0.15917535716735517,-0.4155727612432752,0.47,gamma
"('T4', 'P4')",0.00015374226320030845,-0.42187006336402044,0.42187006336402044,0.906535768432145,-0.46754502883214155,0.004,0.8190801889101684,-0.43672656807154364,0.012,0.7922290419262643,-0.4013433854089814,0.038,0.6200154203910119,-0.40861721105360965,0.086,0.4987150119417179,-0.39227049158314675,0.14,0.2937938785794328,-0.3809690323216192,0.35,beta1
"('Fp2', 'F8')",1.826602158419005e-05,-0.42121759299852374,0.42121759299852374,0.9172504409274393,-0.4458425064660099,0.0,0.8469062102745701,-0.44580687632848115,0.01,0.7613036242177397,-0.43326007824014456,0.016,0.595400478656874,-0.4173664172089722,0.084,0.3727711128179503,-0.4263356895576732,0.194,0.1509197020142518,-0.4131498889346451,0.474,beta1
"('F7', 'T3')",4.992043237924797e-06,-0.4210689027298346,0.4210689027298346,0.8878541684661275,-0.5037249946170276,0.006,0.8300243456741742,-0.44889105490591646,0.012,0.6840292689580207,-0.4832059831635251,0.05,0.5099107286743616,-0.45791809115932675,0.142,0.3329809729039893,-0.45484315842926276,0.256,0.11490831283038197,-0.44271958434595354,0.578,beta2
"('F3', 'Fz')",7.929982393485657e-06,-0.41949963206319174,0.41949963206319174,0.923674790129973,-0.44855760453450383,0.0,0.8363673915517026,-0.45162380525462215,0.01,0.7224550975321709,-0.449094397578987,0.026,0.5365324115987067,-0.4333452655167687,0.074,0.3651362930177027,-0.4221717688155018,0.178,0.10502822136448972,-0.4326014396680807,0.568,beta2
"('F7', 'T3')",5.8845467773630076e-05,-0.4186631234278219,0.4186631234278219,0.9380052203047482,-0.4242429164895563,0.0,0.8817991189108725,-0.4043148487371779,0.008,0.7802324779079218,-0.40472395289458113,0.014,0.6367520651212433,-0.39602378959881446,0.062,0.44712689304711506,-0.4009228394412988,0.144,0.22757267405487416,-0.3885732984254896,0.412,delta
"('Fp1', 'C3')",1.36992909066654e-06,-0.41837192647840304,0.41837192647840304,0.9191057633387353,-0.4869250684596112,0.002,0.8358611925556211,-0.4662367085686359,0.01,0.6857465003924298,-0.4698215480414549,0.016,0.4606824225063865,-0.45992129479503774,0.078,0.25098827382006955,-0.459308151431463,0.244,0.06654318123854522,-0.45874836022945953,0.698,theta
"('T5', 'O1')",7.377253906485676e-07,-0.41810640988867986,0.41810640988867986,0.8784027662313995,-0.5484936080655498,0.01,0.7597507302616534,-0.5397726448117516,0.018,0.6711156002720629,-0.5051341362113557,0.054,0.4274047812139889,-0.49274014489901313,0.142,0.24572619161556847,-0.48553660102160767,0.328,0.054935421494260575,-0.47726219059655395,0.728,beta2
"('Fp2', 'F4')",3.0889340851127605e-05,-0.41737695718717144,0.41737695718717144,0.8777499754914616,-0.4935305924237553,0.004,0.8169989695819219,-0.46131155881455754,0.008,0.7253830019868305,-0.44679051385240415,0.018,0.5782817600716003,-0.42326588139099164,0.1,0.37287227983386,-0.4391145074835623,0.256,0.18527614369153939,-0.4152122123685516,0.466,theta
"('F4', 'T5')",7.274766201663813e-07,-0.41726594541098316,0.41726594541098316,0.8817313722020629,-0.5153614833024527,0.008,0.7907227018808904,-0.4914306447618518,0.008,0.657262018804501,-0.48928895188607474,0.038,0.4442917685184468,-0.47740699588790425,0.162,0.24899963726243482,-0.4799169213870282,0.344,0.07383001687078855,-0.4712945471995121,0.712,alpha2
"('O1', 'O2')",6.790908924482068e-06,0.41489369557791295,0.41489369557791295,0.9009800902637867,0.48065684762472155,0.002,0.8406731176142671,0.4630344905623679,0.004,0.734759013945968,0.4531329278227395,0.04,0.5444275490818253,0.43883108275742416,0.11,0.35906842032604036,0.43082366954268475,0.204,0.1537001185397941,0.4229844748117212,0.51,beta2
"('C3', 'Cz')",3.516286600493989e-05,-0.414552090522655,0.414552090522655,0.9060746811393189,-0.49580560062600953,0.004,0.8152179069481214,-0.4815564299767795,0.012,0.7350513272254685,-0.4584995416906871,0.034,0.5399572802844264,-0.45057616961143715,0.112,0.3886420036351577,-0.43665612404765847,0.22,0.15782272922226911,-0.4210077156849337,0.45,beta1
"('Fp1', 'C3')",3.7423202540790122e-06,-0.4144158148977972,0.4144158148977972,0.9024995301597517,-0.4752015021388244,0.002,0.8041454409909097,-0.475976549759278,0.02,0.7111530753781066,-0.46205267599841254,0.032,0.5010263599161261,-0.46025468123884633,0.124,0.33740625818761,-0.44623905519638063,0.258,0.11778107178204157,-0.44290328768648407,0.602,beta2
"('Fz', 'C3')",3.5152332981105206e-06,-0.41415428689934625,0.41415428689934625,0.8710516732162031,-0.49849743317244366,0.006,0.8256109591391008,-0.45402284982416363,0.008,0.7015164222301042,-0.45606529047839983,0.05,0.5179193372514871,-0.4580499628526877,0.142,0.3339566896895757,-0.4534203353767353,0.252,0.11496882738280588,-0.44724385734989497,0.592,alpha2
"('F3', 'F8')",1.0044363250179382e-05,-0.4135629032522591,0.4135629032522591,0.8969122478962446,-0.48787228445001407,0.002,0.8122011847068905,-0.4597517556175151,0.008,0.6993315235650182,-0.45762293465700915,0.042,0.5467796308201053,-0.4392775914774282,0.096,0.38372746847535794,-0.4292173087229796,0.232,0.16252059480598324,-0.4226092251459033,0.496,alpha1
"('O2', 'C4')",3.372340995361933e-05,0.413520178837644,0.413520178837644,0.9405036081189462,0.4247919695092765,0.0,0.8774639759580761,0.43283560013139705,0.004,0.7761536842954577,0.4272608539699312,0.02,0.6020303188095146,0.41167011817934634,0.064,0.45456054913449234,0.39608105819666317,0.128,0.20635306951855664,0.38949072393157663,0.398,alpha1
"('Fp1', 'T3')",9.575632875939113e-06,-0.4134653059283229,0.4134653059283229,0.9090155734903979,-0.45479722451537347,0.0,0.8477110029232073,-0.4510285360969079,0.008,0.7309690196318953,-0.44910898209088146,0.024,0.5438513713667559,-0.4373098504353469,0.072,0.37208825822132374,-0.430987823739443,0.202,0.13210535924591568,-0.420807042197124,0.488,alpha1
"('Fp2', 'F7')",8.222894275387197e-06,-0.4132521310939191,0.4132521310939191,0.9089064275951765,-0.45717099237596365,0.008,0.8237816935291009,-0.44857417426266305,0.008,0.7381196980048959,-0.4411518670498756,0.026,0.5271867694505584,-0.43640607406734205,0.098,0.34574245713646273,-0.43466577499629533,0.22,0.13491270718129827,-0.4303992658273234,0.546,alpha1
"('O2', 'Cz')",6.297982214328137e-06,0.4117578094916718,0.4117578094916718,0.8737826167000742,0.5105723998364122,0.0,0.8046726157901921,0.47511712516716964,0.018,0.7004909570408341,0.4691792490299927,0.04,0.5414472830065424,0.4502535033048657,0.124,0.35143105830976235,0.4510478664872461,0.224,0.1630301401091733,0.42901514000538066,0.508,beta2
"('F4', 'F8')",6.887141881079883e-06,-0.4115834231019278,0.4115834231019278,0.9187603613392237,-0.46211483112342894,0.0,0.8490549235542757,-0.44388914393301565,0.008,0.7422414690732432,-0.43831748910073864,0.026,0.5246112048106255,-0.4367837118194605,0.09,0.3636155298711667,-0.41962950530217225,0.196,0.12379142791093353,-0.42234800629202096,0.514,gamma
"('F4', 'O2')",2.321687607754131e-05,-0.40951927749600847,0.40951927749600847,0.9084921402464073,-0.4451436393583139,0.0,0.8593890984393358,-0.4242891703603395,0.008,0.755786290645893,-0.4309801468859787,0.03,0.5922904030940216,-0.4148958689347863,0.07,0.440446832133884,-0.4001073767675637,0.146,0.18116848326148702,-0.4067610909980948,0.45,alpha2
"('Fp1', 'C3')",1.554972425662357e-07,-0.4062311452369853,0.4062311452369853,0.8801063760600981,-0.5106310718396834,0.0,0.7622574462391113,-0.5076042216117431,0.008,0.5886226202419035,-0.5223282324403973,0.042,0.3880961006625988,-0.4973686492277686,0.164,0.18869826834580966,-0.506888109832871,0.416,0.05402305742912779,-0.48972066008652493,0.768,delta
"('Fp2', 'F4')",1.120556856079562e-05,-0.40508949360191543,0.40508949360191543,0.9183466509547946,-0.4582851796227713,0.0,0.842796683627062,-0.4552819593872615,0.0,0.7415515427482706,-0.4457133013386374,0.016,0.5792863468697053,-0.41832286175536826,0.062,0.33475573594754043,-0.44057107750182506,0.218,0.14221017850740544,-0.41789529126823577,0.508,delta
"('F4', 'C4')",2.172941053486482e-05,-0.400371426529847,0.400371426529847,0.8945926944307658,-0.476099311658981,0.0,0.8169882002740312,-0.4589284137301588,0.01,0.7451072035103727,-0.42958596588659975,0.04,0.5562676878931708,-0.43445451622225095,0.114,0.413628207018586,-0.42082551444123056,0.198,0.17752910683515802,-0.4171669677531176,0.468,alpha2
"('T6', 'P3')",2.5167307024194176e-05,0.3993371349092508,0.3993371349092508,0.9085276297017952,0.4921681995046061,0.006,0.7979203902925404,0.4690514125896016,0.022,0.7249799879752593,0.45584683075660265,0.052,0.5661223281749509,0.4386042813551579,0.108,0.428437683864285,0.42776107889173215,0.204,0.17207028812658226,0.4302717225265447,0.506,alpha1
"('T4', 'C4')",1.2469337240947853e-05,-0.39929459360398883,0.39929459360398883,0.9351893374944432,-0.4779508392980723,0.002,0.8456179431706466,-0.4619156617113284,0.002,0.7848353548565961,-0.4265535071661279,0.014,0.5564209180302429,-0.4288928636732957,0.056,0.3758232533778397,-0.41936605423675827,0.144,0.12921398744947,-0.4132298347871008,0.478,alpha1
"('F7', 'C4')",2.0687140709781365e-06,-0.39892292618115743,0.39892292618115743,0.9062862897288767,-0.47811353618944974,0.006,0.8340206349284556,-0.44371491324207224,0.012,0.7072091598249188,-0.4553507140129423,0.032,0.4778782026965499,-0.4590750110740486,0.136,0.28928282241491055,-0.46006955825594065,0.276,0.07648130896965706,-0.4549888011148582,0.652,alpha2
"('Fz', 'C3')",4.202873782585306e-05,-0.39816302027385453,0.39816302027385453,0.9156414417357299,-0.45919354428106174,0.002,0.8637150667545931,-0.4261974553391577,0.004,0.758434026460083,-0.43273114264607426,0.024,0.5839489077454328,-0.4225234650925735,0.066,0.42401109173902163,-0.41178567070522665,0.182,0.1951244167478939,-0.40150292947163796,0.436,beta1
"('Fp1', 'C4')",0.00015299806435973242,-0.3962640652393369,0.3962640652393369,0.9544048725323114,-0.38388965318310325,0.0,0.9090720680300998,-0.37915065384171215,0.002,0.834163121063195,-0.3666993974250012,0.008,0.6521625666531853,-0.37967851412901393,0.034,0.49026765903990355,-0.3762011115799552,0.086,0.2707142927533208,-0.3606780473900722,0.276,alpha1
"('O2', 'P3')",1.5557490795165787e-05,0.3943967437077746,0.3943967437077746,0.8750711774970064,0.5029955273199949,0.012,0.8012166265798949,0.46845773015250036,0.012,0.727740258716291,0.4604787198948107,0.048,0.5462294041153581,0.4536504119898312,0.142,0.39219426795061707,0.44144240515796185,0.226,0.18236040040631077,0.42182949365204625,0.486,beta2
"('Fz', 'F8')",1.2218567286608578e-05,-0.39258836746787745,0.39258836746787745,0.8988959503423162,-0.46036321216719006,0.006,0.8245332635160993,-0.4538634029158557,0.016,0.7062161591137108,-0.453194758582842,0.04,0.5571522099846873,-0.43642259519772,0.11,0.39468819502539865,-0.4291547252364107,0.224,0.14815025327838963,-0.4253406046276787,0.518,beta1
"('Fp2', 'Cz')",4.511377307936733e-05,-0.39221247010164656,0.39221247010164656,0.9052663710669594,-0.44436502285899454,0.006,0.8389004276950772,-0.4342114622420657,0.01,0.7744026592809597,-0.41958611473836066,0.024,0.6060558693854785,-0.417689322810307,0.098,0.4458079504150585,-0.4083982748732623,0.186,0.2127363399843175,-0.39519538337436977,0.394,beta2
"('F7', 'Fz')",3.0287190666089255e-06,-0.3915517224534865,0.3915517224534865,0.911553424783311,-0.472849013572788,0.002,0.804871358088168,-0.4787699709631729,0.01,0.69198544962182,-0.46710474284840725,0.026,0.48227376199305144,-0.4618692212737203,0.1,0.29816868541610014,-0.44784951670977935,0.214,0.09063544393707614,-0.4444820978508707,0.64,beta1
"('Fp2', 'C4')",0.00012836345100611607,-0.39137271609384366,0.39137271609384366,0.9368237671348817,-0.387380989945174,0.0,0.8827357635095711,-0.3879049564640657,0.0,0.800056883696975,-0.39548077495431117,0.02,0.6567512666671075,-0.3807393225298542,0.036,0.46849993061921574,-0.392199418772094,0.134,0.2591689840380099,-0.3705314022279915,0.31,delta
"('F7', 'T3')",1.7313355332191807e-05,-0.39038242180869975,0.39038242180869975,0.9042574057050292,-0.4701939603260432,0.002,0.8704507914547375,-0.42019845443424914,0.002,0.7316063993295728,-0.4390064380869722,0.03,0.5798057751432802,-0.42391968535065866,0.086,0.3644175975836538,-0.4336404779300622,0.224,0.16256799629517227,-0.4173021431028008,0.462,alpha2
"('F3', 'C3')",5.000505384869146e-06,-0.3895638635745646,0.3895638635745646,0.8981236985671358,-0.49795073941186135,0.006,0.8366562948412536,-0.4653194960050305,0.004,0.7377904662836934,-0.45313762716335454,0.028,0.5091851595233731,-0.45396808622953827,0.08,0.3047966146695928,-0.44660904804531754,0.236,0.09078030214939124,-0.4384439343906854,0.59,alpha2
"('Fz', 'F4')",6.444641791035113e-05,-0.38943368785900345,0.38943368785900345,0.9128587686416113,-0.42758837126716615,0.002,0.8612186298603673,-0.4030999846689717,0.008,0.7968622702649343,-0.3912708516297355,0.034,0.6568982498944098,-0.3869833895710355,0.082,0.4425854791081433,-0.40780714796627665,0.18,0.2261756790908782,-0.38668073207887393,0.368,theta
"('Fz', 'T4')",3.230165191577733e-06,-0.38907430621330036,0.38907430621330036,0.9001385578512604,-0.4753292820083242,0.0,0.7884501470511105,-0.4858984289032263,0.01,0.714043903714789,-0.46061831580433066,0.036,0.4859447803492398,-0.45770798776680977,0.118,0.33019499809363184,-0.44026171673636755,0.232,0.12017630416539216,-0.4403420977021445,0.624,alpha2
"('F4', 'Pz')",2.8142357643518275e-05,-0.3886793289318481,0.3886793289318481,0.9184436205702006,-0.4453304776596392,0.004,0.8589256346118409,-0.4152428370374328,0.004,0.7748754637950038,-0.4201618551423327,0.036,0.5954010243241769,-0.4136380580035323,0.082,0.4177031605947274,-0.41540603669125215,0.206,0.1747603676496598,-0.40534673131245896,0.448,alpha2
"('Fp1', 'T3')",5.330250929027181e-05,-0.38803804985454476,0.38803804985454476,0.9184955158041244,-0.43366324859566513,0.002,0.8453886684346399,-0.4353570950853912,0.01,0.7349324362620078,-0.44056934022984934,0.034,0.5966217728533637,-0.41902255624967544,0.09,0.44021005958914644,-0.4155548515523274,0.204,0.23974892623347516,-0.4033003877416854,0.41,delta
"('F8', 'Cz')",0.00048058377964872067,-0.3872956660781669,0.3872956660781669,0.9209881351018171,-0.40786253450395804,0.002,0.8860342377032802,-0.3785366637075311,0.008,0.8074815109326183,-0.39036300679284075,0.026,0.6981147429268973,-0.37599620117053234,0.066,0.5608045200522884,-0.37058792925584777,0.136,0.3369878854577242,-0.36486986566358054,0.272,beta1
"('T4', 'C4')",3.815805869737398e-05,-0.38712801314210893,0.38712801314210893,0.9598727906918519,-0.44986937892527096,0.0,0.8903794453353621,-0.4263125514707516,0.002,0.825329398702547,-0.4040424372859129,0.008,0.6180634631551063,-0.4042995950619823,0.034,0.4208330682277147,-0.3991066533617254,0.1,0.16945467979052886,-0.3936503101114452,0.38,theta
"('F3', 'Cz')",1.8069420448749156e-05,-0.3857632506757274,0.3857632506757274,0.9247703598233777,-0.44557696648815087,0.0,0.8474709598569214,-0.4338859208766796,0.012,0.7644869494707046,-0.42561120574902045,0.022,0.576311840085265,-0.42443823850640405,0.09,0.4166247482889057,-0.40841171231447215,0.16,0.15463591430778612,-0.4176765696581722,0.506,beta2
"('F3', 'Cz')",4.35815494098882e-05,-0.38572502697321964,0.38572502697321964,0.9131233992932857,-0.4428499546468784,0.0,0.8535680983115254,-0.43015950335578723,0.008,0.8083141234342078,-0.39957360963212424,0.014,0.6227186508892908,-0.40632203768995584,0.056,0.43743046105487227,-0.4058439345884739,0.168,0.18681019267180982,-0.4079802084999507,0.468,alpha1
"('Fp2', 'T4')",0.00010569433015866193,-0.38470333557768366,0.38470333557768366,0.9281263951475339,-0.39684739293600907,0.0,0.8558359012631988,-0.42095399085866386,0.004,0.7868045754915236,-0.40347625356580286,0.02,0.6875460765095199,-0.37181563801050416,0.048,0.4935003212303334,-0.3825230485418937,0.124,0.260890842783877,-0.37307202129573197,0.316,delta
"('Fp2', 'C4')",0.00010569433015866193,-0.38412861766761514,0.38412861766761514,0.9359078684677659,-0.4059713567418905,0.004,0.8887477072300402,-0.3836416940980224,0.002,0.80816924914384,-0.39208896269043203,0.006,0.6420525985024823,-0.3874855303599652,0.038,0.4576355750505643,-0.3882802402669946,0.106,0.23262742457145297,-0.3780821176558185,0.352,theta
"('O2', 'P3')",8.625116276603707e-06,0.38411829696440525,0.38411829696440525,0.9110680888495482,0.47345627711889204,0.002,0.8397616621243078,0.45699907054186684,0.006,0.761077918557633,0.4338191298189482,0.012,0.5349702147917497,0.4367012119903866,0.072,0.3558678290678668,0.42528356669402156,0.164,0.12766005733042138,0.4216438851055907,0.526,delta
"('F3', 'Pz')",0.0006065402710417811,-0.38344257276265326,0.38344257276265326,0.9359237770378399,-0.37962928437452836,0.002,0.9029679033667121,-0.35173419497641195,0.0,0.8342338876135881,-0.36012747608827217,0.016,0.741682036181224,-0.34531686122765143,0.03,0.5915812930242117,-0.35374353939532466,0.088,0.3541307142452102,-0.3416104253662505,0.202,beta1
"('F4', 'Cz')",4.7961549935111755e-05,-0.3827305627363619,0.3827305627363619,0.9023596988187133,-0.46267954292346963,0.004,0.8314005836400039,-0.44110053530094506,0.008,0.77354805133427,-0.40947592625465895,0.02,0.6043729457700527,-0.4189100465277838,0.084,0.43972313615193276,-0.4094461371346063,0.2,0.21779441239535022,-0.4054922793334337,0.428,alpha1
"('T3', 'C4')",0.00013660439400969935,-0.3824732544809641,0.3824732544809641,0.9217461507141043,-0.41658445088713625,0.002,0.8833422400551948,-0.38628263398280216,0.0,0.7880060900182742,-0.40258247870796116,0.024,0.6387109940053342,-0.3972060875577024,0.062,0.4930485275082916,-0.3903969652515817,0.132,0.26357567875696286,-0.3785432603833941,0.328,alpha2
"('O1', 'Cz')",1.2218567286608578e-05,0.3823071438595694,0.3823071438595694,0.9175972332669939,0.46714653418941726,0.002,0.8370706667728177,0.4493048325017597,0.008,0.7532724522533654,0.43427647566578315,0.024,0.5170781191084562,0.4490026368063025,0.112,0.3928699523192447,0.42704556415259765,0.224,0.16394768091411838,0.4158756939516024,0.474,alpha1
"('Fp2', 'Cz')",3.0458473307374256e-05,-0.3804561240315806,0.3804561240315806,0.8743285508212397,-0.4763946183625457,0.006,0.8331247952706164,-0.452076149075658,0.016,0.7422570435780899,-0.4341340047587949,0.038,0.5879980445855186,-0.415110931180585,0.084,0.3877006518374943,-0.4333062716960427,0.264,0.19696280131446295,-0.4067328941411021,0.458,alpha1
"('O1', 'P3')",0.0005649855547111812,-0.3784400027503526,0.3784400027503526,0.9714402511958363,-0.3435480073942898,0.0,0.9408699790171886,-0.3571539697695524,0.0,0.8587976079504691,-0.37179900708250807,0.004,0.7393998868204502,-0.3521186011378458,0.012,0.5798202506647294,-0.3465808934492316,0.052,0.35148120395502364,-0.3383532008695302,0.182,gamma
"('F7', 'T6')",4.925223338090144e-05,-0.3780144260309669,0.3780144260309669,0.928624599522452,-0.42318492874109914,0.002,0.8547098879563733,-0.43868048641937746,0.006,0.7842681852566723,-0.4182851703694384,0.02,0.6056773164633406,-0.40665216877938987,0.074,0.44324787912166264,-0.4070705161355006,0.156,0.21806349539406122,-0.3945827204889046,0.382,beta1
"('T3', 'T5')",0.00028362027908929486,-0.37769516905642037,0.37769516905642037,0.9199353610945497,-0.4255025560048749,0.004,0.8734690976117431,-0.3980619880676987,0.012,0.7891300480941231,-0.4124567365997878,0.032,0.6629348335227413,-0.3886894660823653,0.078,0.5572196205234854,-0.36525126455559515,0.136,0.3217033507911631,-0.363513897753177,0.302,beta2
"('Fp2', 'C4')",0.00015480529291896168,-0.3771271804987551,0.3771271804987551,0.9221539402812409,-0.41105309664095513,0.0,0.8825421381491885,-0.3893898947538176,0.004,0.8085602381576642,-0.3828282450390015,0.008,0.6506669973106042,-0.3818335300668937,0.05,0.46451236199408985,-0.3911465247805252,0.154,0.2778505730812499,-0.36647358938493557,0.3,alpha1
"('T3', 'P3')",5.108311145537521e-05,-0.3747097884961508,0.3747097884961508,0.9005975109265437,-0.45494615280214346,0.0,0.8444069031587563,-0.4240370351369686,0.004,0.7416499379031828,-0.43538827061005597,0.044,0.5940860099022964,-0.41253815916813186,0.08,0.46774134012808005,-0.4048966042534671,0.194,0.21493230315979572,-0.3959911317594799,0.396,beta2
"('T5', 'O1')",1.5667488392744593e-05,-0.37413676571856996,0.37413676571856996,0.9189669220017153,-0.4641823600508551,0.0,0.8436718458624158,-0.46201275560749094,0.004,0.7616245892723256,-0.4293371016087405,0.022,0.5781174245688413,-0.4233486375630962,0.09,0.4077778698105883,-0.4155771875611581,0.186,0.15945711525554299,-0.41054369081984954,0.464,gamma
"('F3', 'Fz')",1.7043034036985374e-05,-0.3737506926640449,0.3737506926640449,0.8977714536867715,-0.4655537140645972,0.006,0.8314215707666316,-0.446665076103518,0.004,0.7620791132623806,-0.4386100613039093,0.044,0.5834720177105984,-0.4198313539406219,0.094,0.37286138010845377,-0.4299756777150129,0.202,0.1439762874594489,-0.4235159933301032,0.524,theta
"('F8', 'Cz')",0.00023862526327886557,-0.3721471933844791,0.3721471933844791,0.9257912963488132,-0.41275490699006673,0.004,0.8616692616915173,-0.39938228213023674,0.002,0.7911648259766547,-0.3835060409280875,0.02,0.6578491942880019,-0.38214124653670545,0.062,0.5141608345538962,-0.38423877851758403,0.146,0.31953963865868773,-0.3633309991608763,0.3,alpha1
"('T3', 'P3')",0.00013662812851876444,-0.371072530400978,0.371072530400978,0.9243468787291582,-0.41684831540230366,0.002,0.8798241684682696,-0.40150988951893957,0.008,0.8005151431398986,-0.3985728345781423,0.012,0.6865628693104386,-0.3708633419595608,0.042,0.5223282252150276,-0.36805837433275196,0.116,0.2624593162164233,-0.37214422007779335,0.35,beta1
"('F4', 'C4')",0.0001099192040274392,-0.370165100462737,0.370165100462737,0.9220478825520491,-0.42607914155977616,0.0,0.8667243279063945,-0.4190631758935027,0.004,0.7967226132264444,-0.3917448577972999,0.012,0.6122839895178555,-0.40572130874396717,0.062,0.49800183740442683,-0.3876500823099021,0.144,0.2525785286416944,-0.38729810714288443,0.342,beta2
"('Fz', 'C4')",9.909267241803416e-05,-0.3699585234531094,0.3699585234531094,0.9359631732905207,-0.41775892594484115,0.0,0.8859720344722224,-0.398373875663012,0.0,0.8051291859027815,-0.3981415169871245,0.008,0.6488299323626073,-0.40120982482865564,0.05,0.46473232227830136,-0.3935419824039299,0.116,0.2141952522235244,-0.3799706769101592,0.314,beta1
"('O1', 'C4')",2.9224104936072395e-05,0.3691518638954502,0.3691518638954502,0.9228190902922023,0.4462607007047495,0.004,0.849893662239333,0.43533051134731354,0.006,0.7599817392550449,0.431795228784797,0.024,0.5758434095967258,0.42027359568891515,0.09,0.4429745822640543,0.40562742051352796,0.18,0.19090126095385695,0.4053886556466199,0.444,alpha1
"('T4', 'Cz')",0.0002317382823220044,-0.36881896785688834,0.36881896785688834,0.9411602097400963,-0.39926101848197676,0.0,0.878818697774161,-0.39640309715176286,0.002,0.8328427463927834,-0.3613642207796321,0.014,0.687019279037999,-0.367255963694563,0.038,0.5655004330972078,-0.3576093649404518,0.084,0.2817659757437723,-0.3641078049405802,0.288,beta1
"('Fp2', 'C3')",0.00011558518899750523,-0.3686518858881345,0.3686518858881345,0.9207405419242588,-0.41262456454548446,0.0,0.8865850261302015,-0.3912241750287476,0.01,0.7710257720808771,-0.4087712366903884,0.026,0.6406640093148901,-0.39124983750711206,0.046,0.47406707860622294,-0.38764574162785814,0.15,0.23295160370940407,-0.3841018128985691,0.372,theta
"('T3', 'C3')",0.0001101482973334974,-0.36828674286236157,0.36828674286236157,0.9095779463658309,-0.4452250704234488,0.004,0.8605476656668954,-0.40875298695917367,0.002,0.7531598962078192,-0.42250976106403226,0.038,0.6395243155578245,-0.4011286303562349,0.086,0.4755117677270357,-0.3951762907693372,0.156,0.24316948020847073,-0.383904688749798,0.352,beta2
"('T6', 'O1')",0.00010064416899046747,0.3677396288280269,0.3677396288280269,0.9347034821623494,0.4390995711384366,0.002,0.8651210164659245,0.42307319088350387,0.008,0.78006606198083,0.41845605426923943,0.028,0.6180199106505867,0.40571675238265625,0.066,0.5083522738764908,0.3963437307706968,0.164,0.22390517716806005,0.40617051838944596,0.434,alpha1
"('Fp2', 'Cz')",9.727990435533372e-05,-0.36751842992987166,0.36751842992987166,0.9175020526797737,-0.4131260539310117,0.0,0.8679713621621922,-0.39980110559672166,0.002,0.7913379831032168,-0.40433787386774006,0.02,0.6493837581831176,-0.37996320188962895,0.042,0.44086893183009873,-0.39607558212995003,0.14,0.2441285228587498,-0.37979086131364975,0.354,delta
"('Fp1', 'F3')",1.6904639603007814e-05,-0.36613662549790726,0.36613662549790726,0.9105155772844128,-0.46208289149620646,0.002,0.8456618919028329,-0.4471381098999156,0.014,0.7604958587396721,-0.4324881351132565,0.044,0.5748008036321319,-0.42806204689789634,0.1,0.420713758350614,-0.4120374480113001,0.186,0.16509780714747116,-0.4075085569246298,0.456,gamma
"('Fp1', 'C4')",2.4512503476441285e-05,-0.3646425285724849,0.3646425285724849,0.9370970760504861,-0.41336219955642217,0.0,0.8645904504144649,-0.4128112465847347,0.004,0.7891797318141646,-0.4054551840371728,0.02,0.5762905685597117,-0.4153035002139339,0.07,0.4069982258729798,-0.40460403566912345,0.158,0.17693372488509948,-0.39665066744321237,0.44,theta
"('P3', 'Pz')",2.9302499719430365e-06,-0.3642535943621679,0.3642535943621679,0.8659345823819462,-0.5344073260849188,0.008,0.7872898344087155,-0.4928777810337479,0.012,0.6644891677883156,-0.48836999502415074,0.044,0.49516999858071464,-0.4700411761546646,0.154,0.33273026092807106,-0.4688682887734301,0.32,0.1332816567380349,-0.4439553385550687,0.542,alpha2
"('O2', 'C3')",6.148289571744721e-05,0.363310861388911,0.363310861388911,0.9075913439509752,0.463720654229221,0.002,0.8367609927155971,0.4381893875166296,0.01,0.7787179818372847,0.42985300135084287,0.018,0.6196391094748793,0.41088068168747693,0.082,0.49813003695422126,0.3909311481734979,0.162,0.25142226567374154,0.3875475774584598,0.358,alpha1
"('O1', 'O2')",0.0005836535078716676,0.3624290563154129,0.3624290563154129,0.948586400305286,0.3844495818195581,0.0,0.9058526963830043,0.3778261830280229,0.002,0.8691392048701259,0.3564936421732661,0.006,0.7265125758408776,0.3485834995315294,0.024,0.5942468833608777,0.34810120199753763,0.064,0.3830165212805671,0.34204203952403567,0.226,beta1
"('T6', 'O2')",0.00010569433015866193,-0.36075065954179325,0.36075065954179325,0.9624411778494024,-0.39901320647785476,0.0,0.8933030464150195,-0.41132715438591966,0.0,0.822401193057612,-0.4000447979169425,0.01,0.6574662127327056,-0.3862733688079227,0.034,0.4692760432915936,-0.38875494618281287,0.104,0.2221122092919414,-0.3813452541122812,0.344,beta1
"('Fp2', 'T3')",0.004907165724686061,-0.360526015530477,0.360526015530477,0.940318331001139,-0.35673041420275503,0.002,0.9157747728285552,-0.32786784716429346,0.004,0.8479994529713801,-0.3425621553216763,0.008,0.8008747633474961,-0.3171779417115927,0.026,0.6796477261814189,-0.3194227213934729,0.072,0.49659922793335914,-0.3067620522820893,0.172,alpha1
"('F7', 'F3')",6.20650459099519e-05,-0.3604941578137721,0.3604941578137721,0.9358700653814342,-0.4225375408133772,0.0,0.8667240130932768,-0.41409444474160045,0.01,0.7982106971327851,-0.4197249858855775,0.024,0.6087036356190759,-0.4044421639703382,0.08,0.5010496058869351,-0.3864640163973753,0.136,0.2067648955368218,-0.3881788306621423,0.356,gamma
"('Fp1', 'T5')",0.00013695469574074171,-0.35753278364838537,0.35753278364838537,0.926999724716408,-0.4112321938060578,0.0,0.8690075225130205,-0.41377140512331234,0.012,0.78464666193997,-0.40534436489289566,0.03,0.6555314389712694,-0.3945083887623619,0.062,0.5066047408800086,-0.3828950950221772,0.132,0.27989130216126706,-0.3710592187321601,0.286,alpha2
"('Fp2', 'F3')",5.579685144958349e-05,-0.3561725368148506,0.3561725368148506,0.9191334499617391,-0.43458336764940353,0.004,0.8586977923742706,-0.4178523328255858,0.006,0.76827243299095,-0.411965851013605,0.024,0.617540248004599,-0.40129828313457566,0.07,0.4720373560813017,-0.3934687334003491,0.138,0.22253468059860526,-0.3886782535855595,0.384,beta2
"('T4', 'T6')",0.0005952108382684412,-0.35582224027684733,0.35582224027684733,0.9630798637287391,-0.3581140394581088,0.0,0.9157558825317068,-0.37739187445511085,0.002,0.8625935030131605,-0.355735943415581,0.008,0.7310071973275327,-0.350207523472892,0.018,0.6342734923194834,-0.3338740216865819,0.048,0.3554317464270487,-0.3390418480508485,0.184,gamma
"('Fp1', 'F4')",0.00017482473995972041,-0.353663813353735,0.353663813353735,0.9664438108421355,-0.3674412425411159,0.0,0.8994282501811054,-0.3831992693997047,0.0,0.8444445416358513,-0.381548432844933,0.004,0.7233789020972702,-0.3530942969165245,0.02,0.5276105778156045,-0.3667027690116968,0.058,0.24932090831691395,-0.3645061321950659,0.284,delta
"('F3', 'T3')",0.002223208489337025,-0.3531204705007664,0.3531204705007664,0.9285280269838069,-0.41232810679737364,0.0,0.9038579983438629,-0.36252764816018224,0.002,0.822838759217251,-0.36665434253365325,0.012,0.7471484887012225,-0.3535604553389997,0.042,0.6258624770587604,-0.34402378077981505,0.084,0.43860835437492895,-0.3387738156973135,0.198,alpha1
"('T3', 'P3')",4.69573164099316e-05,-0.352389317651309,0.352389317651309,0.9457382867882245,-0.42325072509199935,0.0,0.8704947012232679,-0.4245031969450151,0.006,0.7989737697785528,-0.4034000760913581,0.014,0.636992342007315,-0.39589235840224946,0.046,0.45041213545230924,-0.395661013869266,0.134,0.22044324720460093,-0.38484985998481036,0.392,alpha2
"('T4', 'Cz')",0.0006836094058674832,-0.35196129130708764,0.35196129130708764,0.9396310568789852,-0.38862404396465505,0.002,0.86816381870355,-0.3946805326979486,0.002,0.8388674729985918,-0.35259969269751584,0.024,0.7310501881569703,-0.3515480186976277,0.052,0.620028762436009,-0.33755492452184505,0.084,0.37621996238947725,-0.3388964657394968,0.208,beta2
"('F8', 'C3')",0.0018137593264930558,-0.35142476661656075,0.35142476661656075,0.940267201071406,-0.3776078461814872,0.0,0.9017296556928761,-0.3482353726851155,0.002,0.8525496096116632,-0.3425789861270088,0.022,0.7559402012998182,-0.3360674731267025,0.034,0.6487991799538277,-0.32847085238654034,0.08,0.4368243858373874,-0.3217017669207612,0.18,alpha1
"('T3', 'C3')",0.00036354898939525257,-0.34927975877137885,0.34927975877137885,0.9115772934833893,-0.4312577002858187,0.002,0.8764538173968399,-0.39254930868529364,0.012,0.7804622646224839,-0.3994714990389664,0.02,0.6967159745919717,-0.371641320651772,0.046,0.5440582006659087,-0.370786145817228,0.106,0.3150840192483981,-0.3683956590075809,0.266,beta1
"('F8', 'P3')",0.0009173396729801295,0.3475669012938735,0.3475669012938735,0.9686399098234532,0.34187928168135207,0.0,0.9064349163564188,0.36316564774800136,0.002,0.8731120952964219,0.3489053451145645,0.006,0.7589091138009105,0.32922841287181687,0.022,0.6041652417709423,0.34297275096758517,0.062,0.3838696670618862,0.3312324285143956,0.186,gamma
"('F4', 'Cz')",0.0001231631574282656,-0.34498693521827745,0.34498693521827745,0.9019359247021425,-0.4495248949959604,0.006,0.8492105126266777,-0.4306634738404984,0.01,0.7958560258400248,-0.4071471993989836,0.022,0.6349376259704309,-0.40624274220144785,0.092,0.5012604500863246,-0.3912905430196794,0.178,0.24293162613091074,-0.38723037288221834,0.34,beta2
"('T4', 'Pz')",0.00142423403585132,-0.3447349564094646,0.3447349564094646,0.9260253076866499,-0.3955272072221038,0.0,0.8679879474237403,-0.3940501798465954,0.01,0.8412680444821216,-0.35935849729920394,0.018,0.7329329363396933,-0.35630914123661567,0.03,0.6418943321103117,-0.3309791647332606,0.086,0.41980185782042606,-0.33189774539303496,0.206,alpha2
"('Fp2', 'C4')",0.00013662812851876444,-0.3444673140926101,0.3444673140926101,0.9309563740508053,-0.4139191133672836,0.006,0.8580158702165508,-0.409556562095011,0.008,0.8052421884596468,-0.38688619259583834,0.014,0.6261582495683086,-0.40149637311665254,0.076,0.4990791840569882,-0.3816347481077467,0.126,0.25966473849013516,-0.3817717522257082,0.308,beta2
"('F7', 'Cz')",0.0001099192040274392,-0.3444180859330691,0.3444180859330691,0.9308974977043469,-0.42389087023998323,0.002,0.852166144293871,-0.41910472029240636,0.012,0.7832039105196638,-0.4054389782271289,0.014,0.6372801301221834,-0.39369519981852,0.076,0.48832674488649747,-0.38543194713867124,0.14,0.23776379674562695,-0.38367083167660976,0.346,beta1
"('F4', 'C3')",0.0003678889338406363,-0.34441004036812084,0.34441004036812084,0.9278366807063737,-0.4112715552608757,0.0,0.882384606309013,-0.3869672355514261,0.004,0.8227270971211048,-0.3671847503721161,0.014,0.7020032873958284,-0.366695757179287,0.054,0.5626472317582882,-0.36426796226034064,0.112,0.30216776399435374,-0.3618170834780997,0.292,alpha1
"('Fp1', 'Cz')",0.0007242882836568385,-0.34431396377569545,0.34431396377569545,0.9504748658018078,-0.3513773331442704,0.002,0.9182741473282438,-0.3496185227969709,0.004,0.8621585859792014,-0.3528343248936982,0.002,0.7426039205429369,-0.3424076118580849,0.016,0.585110656468704,-0.34305787235757595,0.064,0.34513406234576083,-0.3409189978484279,0.214,theta
"('T5', 'P3')",0.0001093907094535477,-0.34411429451813336,0.34411429451813336,0.9455714673337307,-0.412803282195235,0.0,0.9134564890359229,-0.39100370426389114,0.0,0.7999982755592728,-0.40292181950677275,0.012,0.648333420917026,-0.38816863247630895,0.032,0.5006051564583375,-0.3785778169381123,0.104,0.23987929362038227,-0.37060867690317556,0.314,gamma
"('Fp2', 'T4')",0.0005929565126231431,-0.3435027468358501,0.3435027468358501,0.9502929692599886,-0.3702010004373387,0.002,0.9003924194118359,-0.37299450305495924,0.004,0.8760011379294689,-0.3503626874923684,0.012,0.7187498516566727,-0.3483429494080274,0.028,0.5771387408923918,-0.3506711513097312,0.058,0.3599305989919085,-0.33457480633143055,0.186,alpha1
"('F8', 'T4')",3.6996846297397846e-05,-0.3432071091076316,0.3432071091076316,0.9334380115470398,-0.42021540575110256,0.002,0.8647300042800261,-0.4155016523888231,0.004,0.7770724016200969,-0.42121921422057323,0.026,0.6063990633127772,-0.40803699346354716,0.072,0.4322490570509557,-0.402041534711149,0.166,0.16915451333549564,-0.4010979314940639,0.422,beta1
"('F3', 'T3')",0.000505582188156357,-0.3412347581430889,0.3412347581430889,0.8988986165225098,-0.4533618621989282,0.0,0.8326572024703102,-0.4352106101767431,0.004,0.7387806140326044,-0.4236854326710984,0.024,0.6525004443481897,-0.40197507983803776,0.096,0.5341544185827007,-0.3941667225225853,0.182,0.3756230498551055,-0.372173905352679,0.288,delta
"('F4', 'T4')",0.0013119693548501897,-0.34073092682604555,0.34073092682604555,0.960854918793631,-0.34757238821874703,0.0,0.9215896584582526,-0.3565552772790594,0.0,0.883054054808482,-0.3348166174618617,0.006,0.7827575988416314,-0.32853224008553844,0.012,0.6438519075358715,-0.3262393032796898,0.044,0.42268554032277134,-0.32179751762435216,0.138,delta
"('F3', 'C3')",0.0011791293506150198,-0.3396802454216285,0.3396802454216285,0.9608484252631547,-0.3631908383410757,0.0,0.9205878300561665,-0.3458165927896378,0.0,0.891330641305335,-0.3222908522457875,0.002,0.7615881450343236,-0.33857202523711594,0.016,0.6122309189416117,-0.3423605642537391,0.066,0.3752536722440612,-0.3322763744745198,0.172,alpha1
"('T6', 'C4')",0.0039194286643679625,-0.3377798673663879,0.3377798673663879,0.953282648738268,-0.3488394699852188,0.0,0.9192855908283584,-0.34445953742785007,0.0,0.8579122365829955,-0.3406620948848202,0.008,0.7876034303969757,-0.31885801164270666,0.024,0.6739588584709578,-0.31180919043990935,0.066,0.505874422823808,-0.3023937270701024,0.106,gamma
"('T4', 'P4')",0.004398571647612818,-0.33723172543793134,0.33723172543793134,0.9722189424827515,-0.34624773694989536,0.0,0.9381818720027058,-0.3289537046061372,0.004,0.9132898250083852,-0.30429406976203877,0.004,0.8035598163076118,-0.31585808264790177,0.016,0.6893041451431926,-0.30811577837255516,0.03,0.5260494658816802,-0.29631746196188924,0.076,theta
"('F7', 'T4')",0.0024046899748815594,-0.33716104440996164,0.33716104440996164,0.9648160349962313,-0.3218524212633529,0.0,0.9218747426113676,-0.3418782695980431,0.002,0.8945945758394203,-0.32169973827433007,0.006,0.7574242624335635,-0.3304040045816999,0.032,0.6815041158282835,-0.3149594617308318,0.044,0.4671972387579714,-0.30901934970905554,0.136,alpha2
"('Fz', 'O1')",0.00021248437057872535,-0.33699384001966254,0.33699384001966254,0.9379911368386357,-0.392401358754517,0.002,0.9282516434927757,-0.3615695337488982,0.002,0.8438695789198645,-0.36563635515173754,0.016,0.6746243509183205,-0.3716931531916156,0.05,0.5431897894616087,-0.364542994696913,0.076,0.2736522477151301,-0.36499750928330477,0.294,alpha2
"('Fp1', 'T3')",0.0007361446934393734,-0.335633209804786,0.335633209804786,0.9396291533919633,-0.3822185886519123,0.002,0.9016328452589343,-0.35669090997797703,0.012,0.8347806433844698,-0.3607034559042104,0.022,0.710605266572464,-0.3484554650355323,0.05,0.5750427138483737,-0.3559745817371003,0.084,0.39120273456571136,-0.3363726977148567,0.232,beta1
"('O2', 'P4')",0.002085287878315965,-0.3353520739764159,0.3353520739764159,0.9708490203504238,-0.3622796432530371,0.0,0.9523873566854715,-0.3425140597936534,0.0,0.8950722927299103,-0.3459493269546755,0.002,0.7764601578115964,-0.3463773274779788,0.01,0.6636268364844871,-0.3318168311873999,0.032,0.3945797101838612,-0.32611972026723157,0.128,gamma
"('O2', 'Cz')",0.0009555213542450761,0.33489719787758687,0.33489719787758687,0.933601287928641,0.39491449596105704,0.0,0.886213467078218,0.37887258841542515,0.01,0.8369180498895372,0.3630673734593541,0.02,0.7235784537916108,0.35352405959800665,0.034,0.6091803252013958,0.34833904597740645,0.104,0.4571962794998802,0.32443674620803087,0.188,beta1
"('C3', 'Pz')",0.000981087091064157,-0.3331714686179663,0.3331714686179663,0.9723854575106331,-0.34575279865626674,0.002,0.9273301355576715,-0.36338631651360315,0.006,0.8849647344141943,-0.35123501073759283,0.0,0.7698347241671324,-0.3405398136105513,0.02,0.6070852534855351,-0.34121281944218007,0.038,0.3667163729485441,-0.3302267693938289,0.162,beta1
"('F7', 'C4')",0.0007370525155538489,0.3331166916669918,0.3331166916669918,0.9464267758611022,0.37630707533227314,0.002,0.904801654124704,0.3690639390570101,0.0,0.8702915826772629,0.3456230663717627,0.004,0.7479082807972033,0.3421453264029754,0.028,0.5814810008262637,0.35484345643551063,0.09,0.37381915934151577,0.340963144696967,0.252,gamma
"('T6', 'O1')",0.001758799588414245,-0.33246407866812594,0.33246407866812594,0.9444392695870848,-0.3705984329658851,0.002,0.9091367340242438,-0.35338939888200765,0.008,0.8594963785012214,-0.3457313132473476,0.01,0.7393690446948609,-0.3466716598879858,0.036,0.6584453109990757,-0.3349288693554597,0.058,0.4498670245557396,-0.3193684606732203,0.16,alpha2
"('T4', 'T6')",0.0005715957622565196,-0.3313916735648985,0.3313916735648985,0.9645419174000665,-0.36360038677836476,0.0,0.9119537757093664,-0.3583751708390595,0.004,0.8500451374276246,-0.3514725597535467,0.006,0.7456537694806371,-0.34051920573906647,0.014,0.624270706154784,-0.3335110316177201,0.052,0.36211600960641455,-0.336743006338916,0.194,beta2
"('T3', 'P4')",0.0006577617559389995,-0.3313488961177792,0.3313488961177792,0.9511462917801196,-0.38285485854430357,0.0,0.909292714236767,-0.3412108746467385,0.008,0.8414334609239702,-0.36599731920952794,0.016,0.6968692819369244,-0.3625529997131733,0.04,0.6127322182382958,-0.3449044177109825,0.082,0.3375684779639307,-0.3461963592772956,0.24,alpha2
"('Fp2', 'T4')",0.002735216022781626,-0.3304036565817594,0.3304036565817594,0.9504282086084958,-0.3492976365330664,0.0,0.9207660402530369,-0.33847242809455946,0.006,0.8906625790760483,-0.32089890796627185,0.006,0.7872069975297505,-0.31564962020277326,0.028,0.6768824531971679,-0.3139948504212191,0.04,0.462312195251776,-0.3090371895011499,0.15,alpha2
"('Fz', 'T3')",0.0019496685179768193,-0.3284965206631304,0.3284965206631304,0.9514414553541,-0.35619838152676503,0.0,0.92173008696089,-0.3257952552907729,0.002,0.858780754763903,-0.3343694043594647,0.022,0.7803912933243047,-0.32383006526519814,0.024,0.6392501358880172,-0.33076797723493667,0.076,0.41432693036913143,-0.32175575501435666,0.156,beta1
"('O1', 'P4')",0.0005341032401202912,0.3282277898730614,0.3282277898730614,0.925789287604032,0.4291303842152087,0.004,0.8672356846100697,0.4070857928167055,0.006,0.7919583054797237,0.3938739839027626,0.026,0.674773394328503,0.37980667032768567,0.076,0.5496961973300836,0.3747018045334641,0.126,0.3591318562864292,0.3568888285426636,0.28,alpha1
"('T6', 'Pz')",0.0015726414347839595,0.327915115176625,0.327915115176625,0.959218504800126,0.3654549074469133,0.0,0.9249664383936446,0.33381211625928986,0.004,0.890953803636722,0.33141498854934803,0.004,0.7803444662271026,0.3230129984211182,0.014,0.6536008379403941,0.32575413280748544,0.058,0.44736935463704675,0.3155533607953667,0.138,beta1
"('Fp1', 'F7')",0.00013961656527766066,-0.32716106851405924,0.32716106851405924,0.9476576687135974,-0.41291966259786106,0.0,0.8920013152291928,-0.4032926032636631,0.004,0.8145159435620778,-0.4063798854416058,0.004,0.6613733683407416,-0.3846008600522572,0.036,0.5001117001015747,-0.3797489112239492,0.09,0.22852237902892014,-0.37838640753345465,0.318,theta
"('F7', 'F3')",0.000505582188156357,-0.3263991491164085,0.3263991491164085,0.9574151423702487,-0.36351996713037876,0.0,0.9162249199694101,-0.36538121274081065,0.002,0.8465571500463887,-0.36233564398050117,0.012,0.7468102429703055,-0.34249619056679304,0.022,0.5198453738979032,-0.3686425603982222,0.082,0.33893488418597806,-0.3426470955271996,0.206,delta
"('T4', 'T6')",0.001758799588414245,-0.32467527348296266,0.32467527348296266,0.9651557492132854,-0.35236874753381414,0.002,0.9380081857847266,-0.34013487903992995,0.0,0.8744364983628098,-0.3256013410402453,0.004,0.7662252086509375,-0.3308062271143126,0.014,0.656602801346987,-0.32158850345097134,0.034,0.43052837119723786,-0.3176210324041407,0.138,beta1
"('Fp2', 'F8')",0.0036558803098700517,-0.32465313715618216,0.32465313715618216,0.9687336802937251,-0.31603307098283345,0.0,0.9403919364017376,-0.30936636755266317,0.002,0.8999102426958171,-0.3061579902164499,0.004,0.8145059570917144,-0.30789861786741496,0.01,0.7044162062126055,-0.30716005434079474,0.04,0.4898730369833678,-0.2979104977811599,0.116,gamma
"('Fp2', 'Fz')",0.0006016226896433824,-0.32455135389508016,0.32455135389508016,0.9490875091705819,-0.3875045273093128,0.0,0.8950567559147348,-0.37504429491985036,0.002,0.8407003475580082,-0.3758618775486894,0.01,0.7119571529692459,-0.35795963678940224,0.024,0.48431336328566993,-0.3754133177607342,0.092,0.3311611729821043,-0.352487927688098,0.246,delta
"('Fp1', 'C4')",0.001391268663781716,-0.3244840389651744,0.3244840389651744,0.9613332794623733,-0.34412915991198234,0.0,0.8980763822327709,-0.3622293887554764,0.0,0.85251411666598,-0.34708601031627845,0.012,0.7322405607970154,-0.34221096625642244,0.042,0.6260967356202435,-0.33930642550172124,0.094,0.43292133130972826,-0.3253921049015773,0.182,delta
"('O1', 'C4')",0.011042318559725216,0.3237468465004333,0.3237468465004333,0.981740388085825,0.29023998252015987,0.0,0.9622362079335695,0.2675083321574783,0.0,0.9171955898056703,0.2794959738215431,0.002,0.8571523394919892,0.2733629133204812,0.012,0.7687602266649171,0.2781969973819911,0.028,0.5833367455907846,0.2757986907343384,0.08,beta1
"('F3', 'C4')",0.00045277684414196705,-0.32343367461014194,0.32343367461014194,0.9509276592592093,-0.3733689405358154,0.002,0.9132044819101109,-0.352674030419475,0.002,0.8356519355717379,-0.36027796973235865,0.004,0.7029590538973856,-0.3658849791006323,0.03,0.5644221327000235,-0.3537269654660062,0.086,0.308590939438677,-0.35516265293844923,0.24,beta1
"('F4', 'T6')",0.0021236981761152394,-0.32335633708989986,0.32335633708989986,0.9607881443980406,-0.3326582109888193,0.0,0.9263481161833914,-0.3285786957379825,0.0,0.8734408291173813,-0.3291717548470741,0.004,0.7882637878367498,-0.3155493595299317,0.022,0.6895596180636252,-0.3109594273283149,0.038,0.43862991307065863,-0.3184568120235595,0.172,alpha2
"('T4', 'O2')",0.000505582188156357,-0.3232464767599641,0.3232464767599641,0.9066000220559748,-0.44318348481847764,0.006,0.8280347513288182,-0.4381096714053877,0.034,0.7600182641388985,-0.4188856717953335,0.052,0.681650115039575,-0.3852176758263965,0.076,0.5788655925026429,-0.36341119814694345,0.11,0.35231075212897683,-0.3606277342964187,0.294,beta2
"('F3', 'T3')",0.0029273912679251587,-0.3218978713204505,0.3218978713204505,0.9623603990200015,-0.3628986445012169,0.0,0.9353698814392203,-0.3350415719824795,0.0,0.8727430549869405,-0.3443612280126446,0.002,0.7664362096466066,-0.33167215416739326,0.012,0.6429922099246715,-0.3342072540754986,0.042,0.447715654751187,-0.3203753961807892,0.162,theta
"('Fp1', 'Fp2')",0.0009555213542450761,-0.3218725515884674,0.3218725515884674,0.9541364031831825,-0.36662479264602066,0.0,0.8883356959528598,-0.3673167152333113,0.006,0.8551201822189132,-0.35309176079642907,0.016,0.7497466508371707,-0.3427600923191823,0.034,0.626110911338854,-0.33685446714200673,0.076,0.35778345092187636,-0.34162683486417406,0.22,beta1
"('T3', 'O2')",8.688418288064582e-05,-0.32118273326055585,0.32118273326055585,0.9373098659041404,-0.4188118486061286,0.002,0.8840278590273731,-0.3882376742599769,0.012,0.8054159365648755,-0.3912954201515292,0.026,0.6180221136565942,-0.40247331941035513,0.064,0.5057297509208664,-0.37205265876882365,0.132,0.24460440473397213,-0.38115554606106666,0.358,alpha2
"('T5', 'T6')",0.0027128669684606103,0.3206055312024744,0.3206055312024744,0.9525764635985738,0.3619849364770577,0.0,0.9340741940822638,0.33575804823521366,0.0,0.8772227009812736,0.33034686083559234,0.008,0.7828674108984622,0.3273077185516907,0.02,0.6706043310029006,0.3233355688901662,0.06,0.443212320126883,0.3219578287684929,0.17,alpha1
"('T6', 'P4')",0.0017257629632289125,-0.3204508605183003,0.3204508605183003,0.9696819454074921,-0.36913544278739885,0.0,0.9240234536984381,-0.3668611566453177,0.004,0.8531388053773445,-0.3543514273579884,0.008,0.7640221196559154,-0.3402384179743229,0.016,0.6531230640957258,-0.33204614342160527,0.032,0.41917373799565316,-0.3262052097162869,0.122,beta2
"('Pz', 'P4')",0.024663037227597603,-0.31935562082952706,0.31935562082952706,0.9522137149309214,-0.32166243991164234,0.0,0.919998272969808,-0.30467103031644976,0.0,0.8850691581229554,-0.30179747481660285,0.006,0.8214642099452807,-0.2947808864798127,0.032,0.7623246032707539,-0.27826298116525683,0.042,0.641559084010932,-0.27144909563654224,0.074,alpha2
"('O1', 'C3')",0.0021377637543518154,0.31817785188344516,0.31817785188344516,0.96272089078505,0.3586752543792276,0.0,0.9211626033455032,0.35463812141579304,0.0,0.8897996440189269,0.3308015753022586,0.002,0.7599340694726127,0.33516298744162887,0.024,0.6838097882160135,0.3148124583235452,0.06,0.4491497999855213,0.31530250032934665,0.162,alpha1
"('O2', 'Pz')",0.001123192806211886,0.31776093791958027,0.31776093791958027,0.9484729781660153,0.3720888546185009,0.004,0.9137224495107544,0.36041671997697616,0.004,0.8485809836922581,0.3501093116507268,0.012,0.7489957519586253,0.34323031088368045,0.024,0.6304099876281881,0.3380849562679402,0.07,0.4581571245794135,0.315079615698005,0.144,beta2
"('O1', 'C4')",0.0008648844969149506,0.3174129503424463,0.3174129503424463,0.9538301944716382,0.3670757363061443,0.0,0.9163872977804065,0.36530730930795136,0.004,0.8498921288660152,0.3583719945803791,0.01,0.759434025174783,0.33595631767303097,0.026,0.6092718775436574,0.34018237194477285,0.086,0.3868331331207115,0.33197640810910173,0.196,beta2
"('T4', 'T5')",0.0019496685179768193,-0.31625330367168564,0.31625330367168564,0.9641829457947438,-0.34489322550822393,0.0,0.9299096323788437,-0.3367719038296295,0.0,0.9000759642986115,-0.32516153411794047,0.006,0.7657493501375934,-0.32252687589433465,0.026,0.6491697677612953,-0.32302783484493786,0.054,0.42503544867292925,-0.3222874853382359,0.158,alpha2
"('P3', 'P4')",0.00138812768923429,0.31623172997115157,0.31623172997115157,0.9572165463775487,0.39631949368276165,0.0,0.9138621041694506,0.3749338144612645,0.004,0.8482406716200375,0.3654894289727795,0.006,0.7323530900357212,0.35712443163366536,0.038,0.5932341658944722,0.34992717132528955,0.078,0.39197490517849376,0.33823921818921937,0.224,alpha1
"('T3', 'P3')",0.004452960965135641,-0.31583964706496154,0.31583964706496154,0.9859982671120058,-0.29970895201278014,0.0,0.966074557015569,-0.3048705701639242,0.0,0.9384343215485997,-0.29762632034198616,0.0,0.865293666455729,-0.28567197307861836,0.002,0.7145311998041854,-0.3008126364975498,0.012,0.5103854065759617,-0.2966991024410967,0.064,delta
"('Fp2', 'T3')",0.004457252139115362,-0.31513005159555985,0.31513005159555985,0.9551947730244202,-0.3361125184988388,0.002,0.9238176356776736,-0.3071797951482129,0.002,0.8774722504703507,-0.31438167567701414,0.01,0.7836919096544075,-0.31436038734573324,0.034,0.6827160282652178,-0.3097546586855199,0.046,0.5001645157651788,-0.30316243622083594,0.14,alpha2
"('Fp1', 'Cz')",0.00020855836790191788,-0.31467559611775925,0.31467559611775925,0.9487401372767689,-0.3932465867171063,0.0,0.8838189046888127,-0.3940466891179873,0.004,0.8104099594033092,-0.3837904668825753,0.01,0.67566257132714,-0.3747982214664084,0.046,0.5113110117708272,-0.37989423036410086,0.132,0.288124838952071,-0.3647315095274673,0.29,delta
"('Fp1', 'F8')",0.0047516368810447025,-0.3144884223783203,0.3144884223783203,0.9627866525722301,-0.3357598531857002,0.0,0.9198783738499448,-0.33391207383214,0.002,0.8579781137392651,-0.327848588615974,0.012,0.7876776562469007,-0.3096266063150255,0.02,0.7008917572822226,-0.30094079463164974,0.048,0.5423504239667493,-0.29295882654667366,0.132,alpha1
"('F8', 'T4')",0.0033818867768089927,-0.31176775450503486,0.31176775450503486,0.955553305486247,-0.3537343067296444,0.0,0.9239367074688696,-0.34065269704499224,0.002,0.8979169722060293,-0.3181850010486872,0.004,0.7698377057640725,-0.32940499095207987,0.02,0.6875085197575137,-0.322252240530779,0.034,0.4692135090820318,-0.3112573589719616,0.112,alpha1
"('Fp2', 'C3')",0.0003685483470060014,-0.31136129038636307,0.31136129038636307,0.9382613772412449,-0.4008889417351817,0.0,0.8880693511584569,-0.3730173849998967,0.004,0.8121608280414611,-0.37647071441489877,0.014,0.7014807867510663,-0.36696154862892644,0.05,0.5255513768519072,-0.37112877834626795,0.132,0.31449502601585777,-0.36404353007596657,0.298,alpha2
"('F4', 'C3')",0.002735216022781626,-0.3113021600705985,0.3113021600705985,0.957946981117462,-0.34521719158688796,0.002,0.9216297742766143,-0.3202557228170269,0.0,0.8840890470642212,-0.32528561813161583,0.01,0.7805777885503019,-0.31920274983349733,0.018,0.6484050528583823,-0.31530520407848034,0.056,0.43888856884926175,-0.3156817434923205,0.15,theta
"('Fp2', 'C4')",0.002849394920281435,-0.31110512370503796,0.31110512370503796,0.9528373657317086,-0.34955455790802914,0.0,0.9257212139144134,-0.3326350199930611,0.004,0.864027006692012,-0.3254643005148976,0.014,0.7784172076935054,-0.3297353082098564,0.06,0.6582056477745075,-0.32393122601987434,0.066,0.4475712440943467,-0.31854419935175465,0.146,alpha2
"('Fz', 'C3')",0.002798812901152395,-0.3092302919315585,0.3092302919315585,0.963580604024357,-0.3548651946461695,0.0,0.9522567334648879,-0.3313449033530902,0.0,0.8959510077833589,-0.3349384351523629,0.0,0.8161589375233774,-0.3141224238464888,0.024,0.6716789305512848,-0.3235465283600495,0.03,0.46338847045678294,-0.3100702609409755,0.118,delta
"('F3', 'Pz')",0.0011791293506150198,-0.30920864136682635,0.30920864136682635,0.954240920433847,-0.37832492059468115,0.0,0.9161867471179452,-0.33710732922965253,0.0,0.8637270462175499,-0.3288450814899963,0.006,0.7511773335321603,-0.34208038772217825,0.046,0.6248770765097553,-0.3344203239570828,0.076,0.3966235084425249,-0.3302970765472233,0.206,alpha2
"('T5', 'O1')",0.002772400764929653,-0.3092055169003883,0.3092055169003883,0.9365884331822733,-0.4016505863724228,0.0,0.9023089096384603,-0.3710325269922001,0.004,0.8507789833293328,-0.3457979488611762,0.014,0.7600331741882977,-0.3421354371048467,0.036,0.643071742599485,-0.34328009905185053,0.094,0.4500227218860353,-0.323226653732274,0.176,beta1
"('F3', 'Cz')",0.0018205397329016065,-0.30889092613486235,0.30889092613486235,0.9678035966807171,-0.34710489244973536,0.0,0.9227007118698997,-0.3580908677858265,0.002,0.8786752532763067,-0.3562093399239762,0.0,0.7883823525641352,-0.33224171068733394,0.012,0.6256438656131961,-0.3414346418306258,0.05,0.3845470345690996,-0.33298466085272793,0.146,delta
"('T3', 'T5')",0.006992657124235908,-0.3078916329168363,0.3078916329168363,0.9655135535692453,-0.3316124315585727,0.0,0.9347653619492524,-0.32718381379085976,0.0,0.8865212017143435,-0.3312276800938558,0.002,0.8178907771361189,-0.303273633604789,0.016,0.7199477422495414,-0.2978096322071975,0.032,0.5317980412168568,-0.29440325555445745,0.116,beta1
"('F8', 'C4')",0.008142595774056164,-0.30768703457548374,0.30768703457548374,0.9600680089810276,-0.33863465671012494,0.006,0.9305286829596098,-0.3253183270426353,0.002,0.8715782976893156,-0.3166717509891536,0.018,0.8190892072976869,-0.3005082525929268,0.008,0.7329923650400267,-0.2966266379364361,0.048,0.5329295225016881,-0.2945590926013061,0.114,alpha2
"('F3', 'C4')",0.0014291553588958387,-0.307678066670381,0.307678066670381,0.9604639184104038,-0.366186228022051,0.0,0.9285940465237523,-0.3376150229302754,0.002,0.8800054253826106,-0.32383585529681225,0.006,0.7733864426220661,-0.3332133613031966,0.012,0.6344617991548378,-0.33492842214227153,0.048,0.3855879420507264,-0.32751375568502633,0.146,alpha1
"('F7', 'Cz')",0.008450749946950374,0.30714763924105026,0.30714763924105026,0.9671194121444333,0.31448547346609745,0.0,0.9365252687734714,0.30779289923312225,0.006,0.917415000396168,0.2860809552031068,0.0,0.8297020221656466,0.2856026103011155,0.016,0.7099592224792677,0.2992007877612726,0.036,0.5519547180365785,0.28916377848412006,0.098,gamma
"('T5', 'P3')",0.0026639003532987378,-0.3070878370808807,0.3070878370808807,0.9688481308994756,-0.3437523340355951,0.0,0.9472095343183016,-0.3301480604698467,0.0,0.884071823466106,-0.33716618959245476,0.008,0.7651687155768331,-0.33520448884254106,0.014,0.6893001942026239,-0.31658925121019427,0.014,0.45780798890818203,-0.3082382929029451,0.126,beta2
"('T5', 'P3')",0.012165429819062885,-0.3065083807025194,0.3065083807025194,0.9641603803167892,-0.3300588454506138,0.0,0.9416820068446745,-0.3079643718735854,0.004,0.882702491876638,-0.29826067310301607,0.002,0.8309605289272451,-0.29187588977425155,0.024,0.7519975174576493,-0.29107769179967974,0.04,0.6089451436029082,-0.2744310504317165,0.082,alpha2
"('F3', 'Pz')",0.011378074827848047,-0.30582643600927223,0.30582643600927223,0.9747787798714191,-0.28612507319238106,0.0,0.9514890300022601,-0.28442215133543985,0.004,0.9158379710463758,-0.27826085922283217,0.008,0.8313773951294857,-0.28634090080575453,0.008,0.7637225566068967,-0.27853909553033346,0.02,0.5673459649069189,-0.28098804781756576,0.09,beta2
"('O2', 'C3')",0.001350722088838735,0.30573677791971166,0.30573677791971166,0.9358707816431856,0.40337763075454985,0.002,0.9005249013324309,0.3618613776572348,0.01,0.8141702711234589,0.38139017470260184,0.014,0.7669029189234722,0.33970362259213494,0.036,0.6313947588727444,0.344140229009678,0.086,0.4349263103173197,0.33129306790050966,0.188,beta1
"('F3', 'F8')",0.002339531693899459,-0.30550725486351554,0.30550725486351554,0.957484052447703,-0.3365472991923241,0.0,0.9267221959381426,-0.32365437160574045,0.002,0.867823874243727,-0.3335333035272038,0.008,0.7993419047527961,-0.32031812987308195,0.02,0.6814034141353335,-0.31860068440773714,0.058,0.4373693008439347,-0.3162486745358588,0.152,beta1
"('Fp2', 'F8')",0.0003720566650892485,-0.30545810707191434,0.30545810707191434,0.912218901265973,-0.44512646197760314,0.002,0.84829209097764,-0.42404377846830904,0.008,0.774347388069736,-0.4095293271175597,0.028,0.663779286013371,-0.3846643835042438,0.066,0.5215850435704908,-0.3867202815048552,0.148,0.345477085723729,-0.3600366081241274,0.288,alpha1
"('F7', 'C3')",0.005479127749747302,-0.30510654714058727,0.30510654714058727,0.9476580292083226,-0.35480929689877394,0.002,0.9034860259797177,-0.34302179870079597,0.008,0.8585171533560714,-0.3401737885732666,0.01,0.7937846074546298,-0.3100373258647686,0.034,0.6583260228220451,-0.3265978148978213,0.068,0.5226943952990968,-0.3019252751598238,0.148,delta
"('T6', 'C3')",0.0016199263608212202,-0.3048771845616002,0.3048771845616002,0.946375970100518,-0.35387086693318,0.0,0.9019014257000236,-0.3580501808485076,0.004,0.8491949440111507,-0.3537520573876811,0.012,0.7559898737594423,-0.339410813323095,0.036,0.6475644011994565,-0.33305290850284475,0.078,0.44105635872485477,-0.3292884476256186,0.182,alpha2
"('T6', 'P4')",0.00048058377964872067,-0.3039903200691135,0.3039903200691135,0.9481592751210766,-0.39768546611099037,0.0,0.8963481957167608,-0.39004668966137185,0.0,0.8100877465964317,-0.38737903720963446,0.016,0.7161187518540602,-0.3647703409164947,0.03,0.5680759161005859,-0.35697161579883774,0.072,0.3330314081648271,-0.3537945229037665,0.248,gamma
"('F7', 'C4')",0.01396755429959387,-0.3037377510873614,0.3037377510873614,0.9557281377336241,-0.31457289218866524,0.0,0.9284213276359932,-0.31270156730274073,0.004,0.8921322666431813,-0.2816351953630192,0.006,0.831017743466905,-0.2926133685276281,0.024,0.7511319980282627,-0.28393585880778155,0.026,0.622714141417211,-0.2685040610268252,0.084,alpha1
"('O1', 'Cz')",0.0010112986617430769,0.3028112084597095,0.3028112084597095,0.9513303335099349,0.3576711475639183,0.0,0.9208124548697614,0.3486044063879759,0.008,0.8570971347204684,0.34801956271806467,0.006,0.7518087168179225,0.330745890369386,0.034,0.6259443723312137,0.33163913068680906,0.056,0.39379713839576225,0.32810804026262413,0.188,beta2
"('F3', 'O1')",0.002063559997186343,-0.3019827450272892,0.3019827450272892,0.9507060023425467,-0.3420453407528536,0.0,0.9470972612269223,-0.2984946824424615,0.002,0.893377798424466,-0.3185970402793648,0.004,0.7776117189037911,-0.327070275452239,0.026,0.6847725447918392,-0.31658968479084076,0.04,0.436703092667412,-0.3168239966491124,0.154,alpha2
"('F3', 'C4')",0.0010674466541083347,-0.30190805905974316,0.30190805905974316,0.9565014456448302,-0.35080940891325213,0.0,0.9230688209252959,-0.3424565235730089,0.002,0.8882614348376815,-0.3307824084403515,0.006,0.7493772327222209,-0.33509044216609585,0.03,0.62936317287134,-0.3340742319659475,0.05,0.39260070236884415,-0.33021228194176716,0.178,theta
"('T5', 'O2')",0.015558276816713946,0.3013584872845585,0.3013584872845585,0.978864848833431,0.2817649812011366,0.0,0.9493253122233,0.28311304378028673,0.0,0.9223235448737435,0.28353099460107023,0.006,0.8565041416134691,0.2711955983873435,0.016,0.7912211981625877,0.2688266097531402,0.026,0.6083930711458804,0.2708326085690378,0.058,theta
"('F3', 'Cz')",0.002930055226482599,-0.3004851830989857,0.3004851830989857,0.952138101494896,-0.33278861679016003,0.0,0.9315626526268396,-0.32426631177015475,0.0,0.8962286821621753,-0.31500705358444175,0.004,0.8018745900116608,-0.3101945936232719,0.012,0.6702217307690981,-0.3195518028821787,0.032,0.44960054565768803,-0.31560006877682684,0.14,theta
"('T4', 'C4')",0.004562146939399032,-0.3003161313157767,0.3003161313157767,0.9835572001926092,-0.3235376530249439,0.0,0.9567197024244746,-0.3122371495547751,0.0,0.9338640837105165,-0.2933892364641622,0.0,0.8429034062850302,-0.29413805563871853,0.006,0.7457436559746272,-0.2984880436154345,0.012,0.5300794186325071,-0.2859598774121181,0.078,delta
"('T5', 'P4')",0.0031460801003469104,0.3001499789237467,0.3001499789237467,0.9443894729531958,0.3681112616286867,0.0,0.891250505955845,0.35548343963769136,0.002,0.8521981884110973,0.3424929202086851,0.024,0.765547256089961,0.33408553693428034,0.042,0.6538486674140559,0.3290450111755368,0.084,0.45769872050414945,0.3161893781117142,0.156,alpha1
"('F8', 'P3')",0.0010508307468080201,-0.30001668476671484,0.30001668476671484,0.9594823695792238,-0.3457516621562877,0.0,0.9144693165119273,-0.3369710935811875,0.004,0.8595350748315503,-0.3430220696170089,0.008,0.7660627187971925,-0.3371976276150777,0.036,0.640840480701247,-0.3252648172223725,0.064,0.3745220695056877,-0.3418982754984761,0.226,alpha2
"('T3', 'C3')",0.0021917012258166712,-0.2998099731616088,0.2998099731616088,0.9460143978778792,-0.4088708827402108,0.0,0.8973094230123648,-0.37051635154487167,0.0,0.8267407311088809,-0.3782841385869771,0.01,0.7603049987777832,-0.3372840017596627,0.022,0.6204285229326358,-0.34686870952555876,0.08,0.4239989682831913,-0.33227040938464286,0.184,alpha1
"('Fz', 'T4')",0.0005057424370510478,-0.29871892528413874,0.29871892528413874,0.9339400726778961,-0.38625163489275116,0.0,0.8767355197062482,-0.3809086455574749,0.002,0.8188301440964227,-0.3755452292853036,0.02,0.7119144204909285,-0.35676402430032755,0.046,0.5876165094622157,-0.35442421169838373,0.084,0.33403187474830226,-0.35187463400312324,0.25,beta1
"('T5', 'Cz')",0.002556070276429646,0.29745365264372475,0.29745365264372475,0.9605376939195255,0.34359660123013647,0.0,0.923201821494167,0.34308743836176175,0.002,0.8818903553584181,0.3186959929878153,0.006,0.7575565116171163,0.33468113807876687,0.034,0.6553600597453834,0.31403368994881403,0.066,0.4847970345891842,0.30951571119308724,0.148,alpha1
