,p_vals_full,mean_eff_size,abs_eff_size,p_vals_sz_20,eff_size_sz_20,freq_repr_sz_20,p_vals_sz_25,eff_size_sz_25,freq_repr_sz_25,p_vals_sz_30,eff_size_sz_30,freq_repr_sz_30,p_vals_sz_40,eff_size_sz_40,freq_repr_sz_40,p_vals_sz_50,eff_size_sz_50,freq_repr_sz_50,p_vals_sz_70,eff_size_sz_70,freq_repr_sz_70,band
"('Fz', 'F4')",0.0,-1.0726213542428353,1.0726213542428353,0.06044439999999995,-1.1972654799519236,0.722,0.016751800000000008,-1.1400238614035993,0.918,0.003987199999999993,-1.1381850793001356,0.986,0.0001270000000000001,-1.116003822111115,1.0,2.0000000000000005e-05,-1.088818407991314,1.0,0.0,-1.0765659157608582,1.0,alpha2
"('F3', 'Fz')",0.0,-1.0208255487976952,1.0208255487976952,0.0722172,-1.222691678302166,0.734,0.029649400000000013,-1.1575812693990455,0.872,0.007212800000000003,-1.1487863984448896,0.962,0.0004655999999999997,-1.12932256644473,1.0,0.00010840000000000002,-1.089105548231083,1.0,2.0000000000000002e-07,-1.0825599103435022,1.0,alpha2
"('F7', 'Fz')",0.0,-1.0141722286771335,1.0141722286771335,0.10140520000000007,-1.1709189867896093,0.656,0.04123799999999998,-1.1232772988461068,0.846,0.0177294,-1.087254573038402,0.92,0.0019809999999999967,-1.0626404306962924,0.986,0.00011059999999999999,-1.0467626281780005,1.0,4.0000000000000003e-07,-1.0260314077990993,1.0,alpha2
"('Fp1', 'Fz')",0.0,-1.006336279959503,1.006336279959503,0.07842360000000002,-1.1148403897328019,0.674,0.021791200000000007,-1.0785958885645912,0.88,0.007152800000000005,-1.060668081880761,0.968,0.0005034000000000001,-1.0531089938274034,1.0,2.16e-05,-1.0320724235189989,1.0,0.0,-1.0196151548893324,1.0,alpha2
"('Fp1', 'F3')",0.0,-0.9604613121517296,0.9604613121517296,0.069829,-1.1698812399851632,0.698,0.019091000000000007,-1.118216187195586,0.898,0.0057702000000000074,-1.095139678450268,0.982,0.0004481999999999999,-1.0790544215318243,1.0,2.000000000000001e-05,-1.0366446545302932,1.0,0.0,-1.0207530945181031,1.0,alpha2
"('Fp1', 'F7')",0.0,-0.936482084630273,0.936482084630273,0.13495879999999996,-1.0674181339988444,0.534,0.06585039999999998,-1.010586765284531,0.74,0.02474959999999999,-0.9691650610871239,0.88,0.003966999999999989,-0.943503495609874,0.988,0.00029020000000000006,-0.9394168032388999,1.0,2.0000000000000003e-06,-0.9184828557425355,1.0,alpha2
"('F3', 'F4')",0.0,-0.9180671379888858,0.9180671379888858,0.1599508,-1.0491527022724048,0.506,0.0793816000000001,-1.000392189513259,0.734,0.026832199999999994,-1.0002816876236236,0.886,0.002869999999999995,-0.9944286650745655,0.98,0.0004375999999999997,-0.9498008227881486,1.0,1.6000000000000004e-06,-0.9392493093572832,1.0,alpha2
"('Fp1', 'F4')",0.0,-0.9056169698074097,0.9056169698074097,0.19580879999999998,-1.0182988612635933,0.456,0.10814280000000008,-0.9764178022437037,0.666,0.052929799999999964,-0.9540849333902298,0.796,0.006518400000000005,-0.9367451829048906,0.968,0.0008931999999999995,-0.9131999044533085,0.998,6.6e-06,-0.8993922248766125,1.0,alpha2
"('F7', 'F4')",0.0,-0.8739094081398344,0.8739094081398344,0.24892719999999993,-0.9605346774143595,0.402,0.13630260000000022,-0.9187211632798855,0.58,0.08626380000000003,-0.8821319141618754,0.734,0.019004599999999993,-0.8880014947272554,0.934,0.0026481999999999964,-0.8602551440814201,0.982,1.84e-05,-0.8577237438638703,1.0,alpha2
"('F7', 'F3')",0.0,-0.8731631578711117,0.8731631578711117,0.11969400000000008,-1.1325559378981358,0.56,0.048807599999999965,-1.0787686463909398,0.782,0.020349200000000005,-1.0362648835618167,0.91,0.002226599999999994,-0.9942153282785067,0.996,0.00019900000000000023,-0.9689783422407027,1.0,1e-06,-0.94842198747075,1.0,alpha2
"('Fp2', 'F4')",0.0,-0.8515623261300587,0.8515623261300587,0.19040219999999994,-1.047223668133917,0.506,0.10807760000000016,-1.0034561161667843,0.684,0.046782399999999905,-0.9756838178195584,0.818,0.009624200000000015,-0.9388148001770412,0.962,0.0007625999999999993,-0.916877144775024,1.0,1.4400000000000003e-05,-0.900661241142748,1.0,alpha2
"('Fp2', 'Fz')",0.0,-0.8424193805923871,0.8424193805923871,0.16136760000000014,-1.05220302030328,0.532,0.08738500000000002,-1.0068277050111534,0.712,0.0340986,-1.0010876428090258,0.87,0.0064762000000000075,-0.9552483689361055,0.972,0.0003262000000000001,-0.9361345205297161,1.0,2.8000000000000007e-06,-0.9147912281410139,1.0,alpha2
"('C3', 'Cz')",0.0,-0.8205962353390017,0.8205962353390017,0.3067036000000001,-0.8733507737997884,0.266,0.19217600000000012,-0.8303529759121372,0.432,0.09443979999999992,-0.8425157991753587,0.674,0.013752200000000027,-0.8435316044503918,0.932,0.0028355999999999963,-0.8089648896888044,0.99,6.059999999999998e-05,-0.797381652391228,1.0,alpha2
"('Fp1', 'F3')",0.0,-0.7906622117599312,0.7906622117599312,0.24163159999999995,-0.89528603522584,0.26,0.11435380000000012,-0.878231721070875,0.542,0.04756079999999992,-0.8556204788951042,0.778,0.006627199999999996,-0.8396899603215969,0.976,0.00046859999999999936,-0.826837030250854,1.0,5.599999999999997e-06,-0.8124497950071922,1.0,beta1
"('F3', 'F8')",0.0,-0.7728673031043651,0.7728673031043651,0.35791980000000023,-0.8370940682134441,0.266,0.22638919999999993,-0.7972012820045253,0.356,0.1554168000000001,-0.7892452958404395,0.556,0.04842379999999997,-0.7761772979981101,0.792,0.012471000000000005,-0.7467337345227273,0.95,0.00027040000000000023,-0.7456925317871957,1.0,alpha2
"('Fp2', 'F3')",0.0,-0.7634961032562069,0.7634961032562069,0.23291759999999986,-0.9614312804326535,0.338,0.12783340000000004,-0.9087235276475691,0.532,0.05890879999999997,-0.8916373319255604,0.736,0.011780000000000002,-0.8674269634168519,0.938,0.0023537999999999966,-0.8366522588629391,0.992,2.3399999999999996e-05,-0.8179917136738953,1.0,alpha2
"('F7', 'O2')",0.0,-0.7598249597074267,0.7598249597074267,0.3057086,-0.884253759910078,0.322,0.17714820000000003,-0.8689777626064624,0.496,0.10454979999999997,-0.8379588180458528,0.662,0.030787999999999982,-0.8032462854624273,0.878,0.005048799999999999,-0.8101667546989295,0.988,0.0002456000000000002,-0.7906195175857107,1.0,alpha2
"('Fp1', 'O2')",0.0,-0.7555151830166913,0.7555151830166913,0.338373,-0.8691219973701145,0.298,0.22210159999999987,-0.8343580037305807,0.454,0.15244420000000009,-0.8084799963873524,0.59,0.05853999999999999,-0.767451857025455,0.798,0.011656800000000021,-0.7724044056615962,0.944,0.0006265999999999993,-0.7525142319815425,0.996,alpha2
"('Fz', 'F8')",0.0,-0.7439980907356676,0.7439980907356676,0.35196340000000004,-0.8935838797450397,0.308,0.22488660000000005,-0.8328469423829191,0.384,0.15678020000000006,-0.8145534845095616,0.552,0.05333819999999993,-0.7970380158261825,0.794,0.014378599999999997,-0.7720403878970968,0.932,0.0002782,-0.758187733984975,1.0,alpha2
"('Fp1', 'Fz')",0.0,-0.73527438888712,0.73527438888712,0.3671740000000001,-0.8333932194717337,0.198,0.21874580000000016,-0.7984227977505813,0.374,0.1313146,-0.7832005513461463,0.582,0.029192199999999974,-0.7759946832818718,0.868,0.0042551999999999954,-0.766274197499367,0.988,9.880000000000004e-05,-0.7522581015001634,1.0,beta1
"('F7', 'T6')",0.0,-0.7232116466634384,0.7232116466634384,0.3058008,-0.9102233842253111,0.36,0.19545120000000016,-0.8654312837379182,0.492,0.11011360000000009,-0.8567343835704024,0.614,0.02932559999999999,-0.8164492227386103,0.858,0.005007400000000007,-0.8087435057337735,0.982,0.00017980000000000014,-0.7950126231914018,1.0,alpha2
"('F4', 'F8')",0.0,-0.721427108223854,0.721427108223854,0.342597,-0.9486036423464201,0.426,0.23571319999999996,-0.8959997103103637,0.498,0.17789679999999988,-0.8695961389774722,0.584,0.07646940000000005,-0.8250817258693187,0.784,0.0263362,-0.7947174041232038,0.896,0.0006361999999999996,-0.7866705013598023,0.998,alpha2
"('Fp2', 'F4')",0.0,-0.7196665840628275,0.7196665840628275,0.37005399999999977,-0.8394876788067733,0.256,0.2308034,-0.8165063008485434,0.41,0.11923180000000001,-0.8150954899384019,0.588,0.04632519999999998,-0.769394501785712,0.832,0.00632980000000001,-0.7785926609448711,0.98,0.0001918000000000001,-0.7636303084202867,1.0,beta1
"('Fp2', 'F7')",0.0,-0.7177766302072831,0.7177766302072831,0.35241079999999986,-0.865656113685396,0.278,0.24676719999999983,-0.8136759558067892,0.42,0.16879220000000017,-0.7866574126688279,0.55,0.06605740000000002,-0.7626124809629813,0.776,0.013529400000000018,-0.7607740944201691,0.94,0.0006051999999999994,-0.7523412947489542,0.998,alpha2
"('Fp2', 'Fz')",0.0,-0.7156148492351365,0.7156148492351365,0.4494622000000006,-0.7709182252509545,0.148,0.3027609999999998,-0.7457888409982992,0.288,0.18170040000000007,-0.7427415650689012,0.484,0.06673799999999992,-0.7220362047244359,0.74,0.01490780000000001,-0.7177604965140321,0.922,0.0007313999999999999,-0.7056210281774974,0.998,beta1
"('Fz', 'F4')",0.0,-0.7117136034756341,0.7117136034756341,0.4922095999999998,-0.7625836616299396,0.144,0.3824368000000001,-0.7249870494476618,0.26,0.24219320000000016,-0.7296456315819594,0.394,0.10990340000000012,-0.6954291410535083,0.642,0.03083539999999999,-0.6904243925743683,0.856,0.0020505999999999957,-0.6793022247529814,0.994,beta1
"('F7', 'Cz')",0.0,-0.7073821297317254,0.7073821297317254,0.3840562000000001,-0.8585929045713322,0.28,0.29200200000000026,-0.8024144521811112,0.382,0.17783100000000016,-0.7920589550046728,0.562,0.06368779999999999,-0.783682200932946,0.776,0.02829139999999999,-0.7610151462201411,0.884,0.0007667999999999992,-0.7375666443845574,0.998,alpha2
"('T6', 'O2')",0.0,-0.7048963691378478,0.7048963691378478,0.3595952000000001,-0.8352523074966725,0.254,0.22792880000000026,-0.8218262773804336,0.44,0.14863379999999998,-0.7944451185209481,0.584,0.05074400000000001,-0.7711718333060497,0.822,0.015649800000000005,-0.762319845920754,0.926,0.0002986000000000001,-0.7565014186802267,1.0,alpha2
"('T3', 'Cz')",0.0,-0.6877167375016547,0.6877167375016547,0.3588856,-0.81404535460831,0.198,0.23648679999999994,-0.7755499282980259,0.324,0.1210340000000001,-0.7583244369459456,0.54,0.028938599999999995,-0.7731612089263215,0.88,0.007242400000000004,-0.7387220917710048,0.972,0.00019100000000000025,-0.7383253076216992,1.0,alpha2
"('Fp1', 'T6')",0.0,-0.6822619141885025,0.6822619141885025,0.46105119999999994,-0.7471170953849465,0.174,0.31519200000000036,-0.7371342693078571,0.296,0.21835360000000004,-0.7247776039055261,0.418,0.076616,-0.7120630887807231,0.726,0.0254414,-0.6953149508536903,0.894,0.0016029999999999987,-0.689648172122157,0.996,alpha2
"('Fp1', 'F3')",0.0,-0.6764864492733959,0.6764864492733959,0.34138699999999994,-0.8237297390511565,0.176,0.20705319999999985,-0.7803456447656014,0.296,0.11218919999999993,-0.7653671855546759,0.514,0.023510200000000026,-0.7422876828226752,0.87,0.004672599999999998,-0.731596306639714,0.984,0.0001260000000000001,-0.7115637347205439,1.0,alpha1
"('F4', 'Cz')",0.0,-0.6605091441192779,0.6605091441192779,0.4815606000000003,-0.7485614952466622,0.156,0.3380783999999997,-0.7338191146559193,0.28,0.21507220000000005,-0.7326837124413672,0.448,0.08865199999999993,-0.7261554602342699,0.692,0.03785419999999998,-0.6953279353446901,0.854,0.0017677999999999962,-0.6856863722141973,0.992,alpha2
"('Fp2', 'F4')",0.0,-0.65915449745261,0.65915449745261,0.44200879999999976,-0.7860800631630355,0.208,0.2878542000000003,-0.7599420101997508,0.334,0.18992180000000017,-0.7533935330829973,0.49,0.06576779999999995,-0.7398036814738314,0.768,0.018986799999999998,-0.7335057864019319,0.916,0.0009295999999999998,-0.7148051539301141,0.994,beta2
"('T3', 'C3')",0.0,-0.6533257322342376,0.6533257322342376,0.46195280000000033,-0.7398510058696025,0.136,0.32044119999999987,-0.7165049936656244,0.216,0.20485119999999987,-0.7002689482426628,0.36,0.07561519999999992,-0.6882655049261956,0.698,0.026160400000000014,-0.6743683553937666,0.878,0.0014725999999999975,-0.660098039557153,0.994,alpha2
"('F4', 'F8')",0.0,-0.6418124472444823,0.6418124472444823,0.5570765999999999,-0.7004987684915001,0.14,0.43261879999999997,-0.694081719883705,0.26,0.3440550000000004,-0.6812173227178643,0.346,0.2233850000000003,-0.6449943603113755,0.524,0.11307600000000005,-0.645409881106973,0.692,0.018029800000000002,-0.6289256082664134,0.934,beta1
"('Fp1', 'F7')",0.0,-0.6393179987569308,0.6393179987569308,0.5182648000000002,-0.7248272603302249,0.124,0.38277199999999956,-0.7061680388225064,0.22,0.284693,-0.6727295330530426,0.322,0.157477,-0.6383149655587332,0.498,0.04153579999999997,-0.6547277280058212,0.796,0.004150399999999997,-0.6377758728325789,0.986,beta2
"('Fp1', 'Fz')",0.0,-0.6384063483405227,0.6384063483405227,0.5639498,-0.6821811981103382,0.086,0.42010899999999984,-0.66231355585233,0.144,0.3002138000000002,-0.6555472308603503,0.274,0.1488888,-0.6415827554453873,0.566,0.04597999999999996,-0.6387239513758186,0.772,0.005344199999999996,-0.6283092533407175,0.97,beta2
"('Fp2', 'O2')",0.0,-0.6355469452047737,0.6355469452047737,0.46852779999999955,-0.7712084258644211,0.192,0.34207259999999967,-0.7406664388312239,0.294,0.27033920000000033,-0.7065051303988256,0.372,0.1152312000000001,-0.6879378043092329,0.628,0.05179579999999996,-0.6727532299686813,0.808,0.005457400000000008,-0.6623191489990302,0.976,alpha2
"('Fp1', 'Fz')",0.0,-0.6306431710252209,0.6306431710252209,0.5240486,-0.7030961275016592,0.108,0.39531040000000023,-0.6762645542055395,0.194,0.28980880000000003,-0.6657264388602562,0.32,0.12021060000000006,-0.6518905336444112,0.578,0.04197260000000002,-0.6430671279205362,0.814,0.005052400000000006,-0.6287336898157788,0.978,alpha1
"('Fp1', 'F3')",0.0,-0.630598101780577,0.630598101780577,0.5423933999999997,-0.7075426764917049,0.108,0.40465859999999954,-0.6825128155521023,0.22,0.3143749999999998,-0.6647870433128753,0.336,0.1301712,-0.6544771991583946,0.588,0.04443739999999997,-0.6480622217102825,0.806,0.004092799999999993,-0.6368315605209407,0.986,beta2
"('F8', 'T5')",0.0,-0.630542786274652,0.630542786274652,0.5900451999999995,-0.6527121722889034,0.098,0.44459919999999986,-0.6512086238500112,0.186,0.3236009999999998,-0.6433372610304198,0.286,0.165546,-0.6194332165094448,0.514,0.06018699999999997,-0.6215467971160574,0.76,0.007361800000000013,-0.6162698846551832,0.966,alpha2
"('F3', 'Fz')",0.0,-0.6285247287290092,0.6285247287290092,0.5677694000000002,-0.7063824061883863,0.098,0.4244135999999998,-0.6846418982685801,0.19,0.2903434000000001,-0.6719174796666879,0.3,0.147165,-0.6428194925502843,0.52,0.044881199999999975,-0.6452978352057923,0.804,0.00675540000000001,-0.6313189273145807,0.97,beta1
"('F3', 'Cz')",0.0,-0.6262306076258205,0.6262306076258205,0.4355955999999998,-0.7946077537844587,0.214,0.3496253999999998,-0.7364098799578002,0.298,0.2515590000000001,-0.7316938129748634,0.458,0.13527660000000014,-0.7242228801751615,0.654,0.07148560000000002,-0.6933453035606895,0.764,0.006119400000000009,-0.6839338708757591,0.978,alpha2
"('F4', 'F8')",0.0,-0.6212831963266618,0.6212831963266618,0.4980648000000001,-0.7247948221396396,0.136,0.3525128,-0.7086131209795845,0.242,0.2502726000000001,-0.6889388188740792,0.348,0.10946820000000008,-0.6720893856680302,0.646,0.032963399999999976,-0.6757444042110942,0.848,0.002658599999999994,-0.6664702915723287,0.99,beta2
"('F3', 'T6')",0.0,-0.6182564190626895,0.6182564190626895,0.5232793999999996,-0.7173320732093103,0.132,0.4259031999999998,-0.6689372617353117,0.19,0.3051265999999997,-0.6743179475021376,0.338,0.14028859999999993,-0.6526137983983872,0.556,0.05836379999999999,-0.6311888619119486,0.754,0.007461000000000007,-0.6310939166875625,0.974,alpha2
"('Fp2', 'F8')",0.0,-0.6154816630540895,0.6154816630540895,0.4591246,-0.7805575544119588,0.248,0.3927167999999999,-0.7445241491346382,0.358,0.3356232000000001,-0.7166750505856523,0.414,0.2240418000000003,-0.6714985957670945,0.52,0.12932380000000007,-0.6470423062229006,0.628,0.0198428,-0.6304646859687123,0.894,alpha2
"('F8', 'O1')",0.0,-0.6153872127603076,0.6153872127603076,0.5136861999999999,-0.7199116260563355,0.176,0.40239359999999963,-0.698660962089857,0.264,0.2849773999999998,-0.6841008740306748,0.378,0.1353826,-0.6640539698202641,0.564,0.04886619999999996,-0.6510962966728399,0.792,0.006175400000000012,-0.6463482837877221,0.97,alpha2
"('Fp1', 'F7')",0.0,-0.612762477536056,0.612762477536056,0.5692033999999998,-0.7111575727605907,0.106,0.4343859999999999,-0.6900419665266931,0.22,0.31730720000000023,-0.666985430132699,0.292,0.19918820000000015,-0.6228694899357493,0.466,0.061702399999999935,-0.6469867821994177,0.774,0.006146799999999996,-0.6263498089059768,0.97,beta1
"('F3', 'Cz')",0.0,-0.598569282615953,0.598569282615953,0.6255052000000001,-0.6666621279378879,0.076,0.4914776000000004,-0.6514055126310058,0.168,0.3667194000000004,-0.6440863489605432,0.258,0.19857319999999984,-0.6203837956650704,0.478,0.08003539999999996,-0.6215996559474012,0.678,0.012627800000000014,-0.5979195459717439,0.928,beta1
"('F7', 'F3')",0.0,-0.5984115006202206,0.5984115006202206,0.4913393999999998,-0.7224612243858022,0.118,0.3550982000000003,-0.7026435044617358,0.25,0.28604940000000006,-0.6681574658640831,0.334,0.16596299999999997,-0.6378823609645096,0.552,0.06918200000000002,-0.6428195667852141,0.75,0.005404200000000006,-0.6252153050512087,0.976,alpha1
"('Fp1', 'Fp2')",0.0,-0.5965167449192244,0.5965167449192244,0.4729026,-0.7676704068050305,0.206,0.4223418,-0.7053516723782519,0.242,0.3077946000000003,-0.7020010794244465,0.37,0.17856260000000027,-0.6675136206423167,0.532,0.06522359999999996,-0.6523962277019901,0.738,0.013405399999999993,-0.6384824260005802,0.942,alpha2
"('Fz', 'T3')",0.0,-0.5935704044431298,0.5935704044431298,0.5153017999999999,-0.7041674440457654,0.116,0.441167,-0.6537963076135557,0.19,0.32924179999999975,-0.6498452094110487,0.294,0.1268594000000002,-0.6672445218257286,0.578,0.07216759999999997,-0.6404855882045298,0.738,0.007859800000000009,-0.6265007874524076,0.968,alpha2
"('Fp1', 'C3')",0.0,-0.5923914736956161,0.5923914736956161,0.6577184000000005,-0.6416799519345258,0.046,0.4937298000000001,-0.6300493756825368,0.132,0.3612334000000002,-0.6297663243268549,0.224,0.1760064000000001,-0.6213922941389747,0.486,0.060817600000000006,-0.6142094208752842,0.76,0.006832000000000013,-0.6089081887071539,0.968,beta1
"('Fp2', 'Fz')",0.0,-0.5899828199239253,0.5899828199239253,0.6440020000000001,-0.6292177536096879,0.074,0.5286054,-0.6145271506909711,0.106,0.40665499999999977,-0.6079380135870056,0.22,0.23921500000000004,-0.591324363350157,0.374,0.10975520000000005,-0.5914235176299764,0.624,0.021099199999999995,-0.5767338825453759,0.904,beta2
"('F7', 'F3')",0.0,-0.589963615499736,0.589963615499736,0.5734549999999997,-0.7060322746346005,0.066,0.4092884000000002,-0.6822248496659107,0.142,0.26678399999999974,-0.6667169718844869,0.242,0.12462380000000002,-0.6338055856371421,0.5,0.030171599999999972,-0.6393437620023573,0.846,0.0018223999999999953,-0.6244196483085096,0.998,beta1
"('Fp1', 'F4')",0.0,-0.5874987295709455,0.5874987295709455,0.5777276,-0.6738876265668311,0.086,0.45401400000000003,-0.6471431871045213,0.148,0.32193479999999997,-0.634656936162575,0.258,0.1402546000000001,-0.6283720008322543,0.496,0.06177299999999986,-0.6193038618555998,0.734,0.006989200000000005,-0.6071220916161438,0.966,alpha1
"('Fp1', 'Cz')",0.0,-0.5850938765062818,0.5850938765062818,0.6470071999999997,-0.6555159901376815,0.068,0.4817978000000002,-0.6458899151213027,0.14,0.3641487999999999,-0.6349847708734792,0.248,0.15453519999999998,-0.6316808801057416,0.49,0.06377559999999997,-0.6182484091778838,0.748,0.005739000000000003,-0.6143410322142837,0.976,beta1
"('F4', 'C3')",0.0,-0.5734138970425909,0.5734138970425909,0.6191140000000002,-0.6354396030769409,0.064,0.5235416,-0.6102216332749759,0.128,0.3741834000000004,-0.617433655858945,0.216,0.1772852000000002,-0.6228387804961695,0.482,0.10187980000000008,-0.5910468165766165,0.632,0.017386400000000017,-0.5798917424767429,0.932,alpha2
"('O1', 'O2')",0.0,0.5723374767754643,0.5723374767754643,0.5452272,0.7187190627451808,0.184,0.4440732000000003,0.6791426907799863,0.282,0.39064300000000013,0.6563135282388339,0.34,0.2464772000000002,0.6423594520760341,0.51,0.18365240000000027,0.6150425306610201,0.604,0.04747179999999996,0.589491483135671,0.802,alpha1
"('Cz', 'C4')",0.0,-0.5714588212073674,0.5714588212073674,0.49985420000000014,-0.7235867506288802,0.138,0.39001979999999986,-0.7021355429575321,0.272,0.2997852000000002,-0.6970217437655977,0.412,0.18272220000000025,-0.6856539578935943,0.638,0.12454919999999998,-0.6531924266732004,0.7,0.0254484,-0.6291966112972915,0.868,alpha2
"('F7', 'Pz')",0.0,-0.5700791759619627,0.5700791759619627,0.6511243999999998,-0.609185596264576,0.088,0.5777209999999998,-0.5798909391891998,0.138,0.4549206000000001,-0.586280030958286,0.198,0.29168400000000044,-0.5760323549229934,0.362,0.17287860000000013,-0.5640802770071982,0.56,0.048323199999999976,-0.5470773958539472,0.822,alpha2
"('Fp1', 'F7')",0.0,-0.5650047060587362,0.5650047060587362,0.6016096000000006,-0.6533149345211706,0.058,0.5013190000000004,-0.6153430551904652,0.132,0.3757392000000005,-0.609744243014603,0.218,0.2570537999999999,-0.572774158339502,0.384,0.10095300000000007,-0.5880752854794394,0.646,0.0179132,-0.5689079846214394,0.926,alpha1
"('T3', 'Pz')",0.0,-0.564739149331601,0.564739149331601,0.6463836000000004,-0.6157862457928356,0.072,0.5008313999999997,-0.6142856321080323,0.128,0.3709833999999997,-0.6113460288476372,0.22,0.20950200000000002,-0.6010269456375565,0.44,0.1216200000000001,-0.5765602407134058,0.626,0.01724920000000001,-0.5779443958785423,0.918,alpha2
"('O2', 'P3')",0.0,0.5645552964016174,0.5645552964016174,0.6161214000000004,0.6485021020407588,0.092,0.49897600000000025,0.6228444927226723,0.156,0.38760420000000007,0.6078348588619595,0.22,0.22452939999999993,0.598607695841962,0.436,0.12234419999999996,0.5814838726233281,0.584,0.017765999999999983,0.5710559232801006,0.904,alpha1
"('Fp2', 'Cz')",0.0,-0.5637921291857465,0.5637921291857465,0.6304229999999997,-0.6634759714889851,0.092,0.4961693999999996,-0.6427787421977952,0.188,0.3780545999999998,-0.6418396616697295,0.27,0.21397580000000008,-0.6171534195924274,0.482,0.10514799999999994,-0.6086857646255849,0.654,0.016577199999999993,-0.6020337789540063,0.932,beta1
"('C3', 'C4')",0.0,-0.5630169189923431,0.5630169189923431,0.6029256000000001,-0.6576696134379885,0.106,0.47861140000000013,-0.6446297838923221,0.182,0.3522885999999998,-0.650894147981735,0.298,0.17085300000000017,-0.6459967590521868,0.526,0.08802660000000008,-0.6168057864605765,0.686,0.013326200000000009,-0.6049601037064182,0.938,alpha2
"('F7', 'Fz')",0.0,-0.5613856145902658,0.5613856145902658,0.6029672000000001,-0.6526330192181745,0.082,0.4815466000000001,-0.6294074546799129,0.168,0.4060364000000001,-0.6018762037897858,0.218,0.23981740000000018,-0.5905688739282852,0.406,0.10998639999999998,-0.5896697747547966,0.634,0.01962040000000001,-0.5734620202870926,0.912,alpha1
"('Fp2', 'F4')",0.0,-0.5580510097565592,0.5580510097565592,0.6151976,-0.6369909188704383,0.096,0.48165439999999987,-0.6322541813740954,0.144,0.3622243999999999,-0.6319784925193469,0.268,0.17989300000000016,-0.6249288297792476,0.478,0.09381479999999998,-0.613110335453557,0.694,0.011877599999999995,-0.6041439954248723,0.936,gamma
"('F3', 'O2')",0.0,-0.5571884637428058,0.5571884637428058,0.6511487999999998,-0.6136017998790373,0.072,0.5289762,-0.6000662509200966,0.126,0.42883540000000026,-0.5883050267436196,0.176,0.24249379999999993,-0.5789763319696387,0.394,0.13798940000000015,-0.5624656753877375,0.564,0.02777039999999998,-0.5606294148721617,0.874,alpha2
"('T5', 'O1')",0.0,-0.5555117390352805,0.5555117390352805,0.5623329999999999,-0.6909136188022152,0.144,0.43483839999999974,-0.6716559582739635,0.2,0.39638300000000026,-0.6391628193794944,0.304,0.2365031999999998,-0.6162292090366462,0.446,0.13827700000000004,-0.5937558750703082,0.606,0.026174599999999996,-0.599014423830996,0.904,alpha2
"('Fz', 'T6')",0.0,-0.5526044997900131,0.5526044997900131,0.6664075999999995,-0.5950726707175805,0.064,0.5509398000000005,-0.5958588174856652,0.102,0.4270209999999998,-0.5816957796422767,0.176,0.25527019999999995,-0.5737572261494182,0.396,0.14588920000000008,-0.5579067407934266,0.56,0.028311800000000005,-0.555482423411097,0.882,alpha2
"('Fp2', 'O1')",0.0,-0.5491541387095777,0.5491541387095777,0.6221340000000004,-0.6167105121114905,0.08,0.5289386000000003,-0.5931389818166803,0.14,0.4641920000000002,-0.578092595608916,0.206,0.3256159999999996,-0.5540538419573873,0.35,0.1846512000000001,-0.550900498315743,0.532,0.056661199999999926,-0.5306509829456527,0.75,alpha2
"('Fp1', 'F4')",0.0,-0.5445631801357271,0.5445631801357271,0.6704498000000007,-0.6189988623162229,0.068,0.5637542000000002,-0.5973378243804139,0.102,0.4656666000000002,-0.587959812357301,0.198,0.27241039999999994,-0.5660392159127599,0.358,0.13901399999999997,-0.5706212442449914,0.586,0.025528399999999972,-0.558991827183049,0.886,beta1
"('Fp2', 'F3')",0.0,-0.543918719689586,0.543918719689586,0.5369259999999997,-0.6935576840018912,0.104,0.4400934000000001,-0.6659563113711332,0.19,0.33345939999999996,-0.6404332792069405,0.254,0.18930199999999997,-0.6182640978200616,0.462,0.08526139999999989,-0.605480587634699,0.672,0.010672600000000008,-0.5957767875893311,0.956,alpha1
"('Fp2', 'F3')",0.0,-0.5433345661351224,0.5433345661351224,0.7213807999999999,-0.6044858709192087,0.034,0.5837393999999995,-0.5900218992985994,0.088,0.4851287999999999,-0.5689103604307216,0.122,0.30202439999999997,-0.551231672991324,0.266,0.15307019999999988,-0.5469443928369976,0.508,0.030384399999999995,-0.5417687549127305,0.876,beta1
"('F3', 'Fz')",0.0,-0.5414970557316313,0.5414970557316313,0.48470799999999953,-0.7454327709585081,0.172,0.41996900000000004,-0.696369404004897,0.306,0.32111679999999976,-0.6830157423665654,0.404,0.2477424000000001,-0.6421686589716951,0.522,0.13217200000000007,-0.6394361808144268,0.698,0.03730779999999998,-0.6130139442743833,0.848,alpha1
"('Fp1', 'F3')",0.0,-0.5390783609656593,0.5390783609656593,0.6660438000000002,-0.6354135724862425,0.022,0.5666635999999998,-0.5982821679541281,0.068,0.4176838,-0.59205402859548,0.118,0.21487079999999997,-0.5789477846989017,0.29,0.09450439999999992,-0.559132835300999,0.542,0.012199600000000003,-0.5476658314803583,0.946,theta
"('F3', 'T3')",0.0,-0.5380700144343982,0.5380700144343982,0.6013765999999994,-0.6545215531855123,0.092,0.5258349999999996,-0.6141959105356963,0.136,0.4263913999999996,-0.5941982295900095,0.22,0.22370880000000004,-0.6030653739136558,0.402,0.13310820000000007,-0.5824059136751872,0.584,0.02618880000000001,-0.5663060993002516,0.882,alpha2
"('O2', 'Pz')",0.0,0.537422378551889,0.537422378551889,0.6640273999999995,0.6002851322019748,0.062,0.5364375999999994,0.5987073541756811,0.116,0.41625579999999995,0.5833335126141906,0.184,0.22606180000000015,0.5789751604073119,0.37,0.13623300000000008,0.5637454890839578,0.568,0.026868599999999965,0.5519290803405569,0.87,alpha1
"('F7', 'F8')",0.0,-0.5362238443345567,0.5362238443345567,0.6438557999999994,-0.6319065012250996,0.078,0.5489196000000003,-0.594399252250035,0.12,0.4255998000000002,-0.5958681667453267,0.24,0.28413620000000017,-0.5756797329086042,0.352,0.14651900000000007,-0.5698528320645206,0.552,0.031686399999999976,-0.5569576598327358,0.848,alpha2
"('F7', 'F3')",0.0,-0.5359663728845034,0.5359663728845034,0.6230839999999995,-0.6448046339888127,0.072,0.5024757999999999,-0.6167402310226389,0.116,0.40779359999999987,-0.6005718910972461,0.182,0.24429080000000003,-0.5734370152664557,0.354,0.1102236,-0.5779417032388733,0.616,0.013843400000000007,-0.5758460861975055,0.934,beta2
"('F3', 'C4')",0.0,-0.5352209216352978,0.5352209216352978,0.7356382000000006,-0.546506035285797,0.03,0.6573390000000002,-0.5240650595543397,0.072,0.5218740000000003,-0.5358780483882569,0.144,0.35799640000000016,-0.5332202191013516,0.286,0.25958800000000026,-0.5114189345060114,0.38,0.08135400000000001,-0.5077766435465431,0.724,alpha2
"('Fp2', 'T6')",0.0,-0.5255276902993894,0.5255276902993894,0.5953746,-0.6606990647368365,0.116,0.48418659999999947,-0.6339725084475895,0.164,0.40322959999999936,-0.6085217220172747,0.228,0.21140859999999995,-0.6070473048869864,0.432,0.11644740000000005,-0.5946174762706291,0.634,0.023254199999999996,-0.5843190997075051,0.908,alpha2
"('Fp1', 'O1')",0.0,-0.525492762600982,0.525492762600982,0.6585874000000007,-0.5960096506114503,0.064,0.5489737999999998,-0.579343262815286,0.102,0.49810259999999984,-0.5549469674326347,0.158,0.3555847999999999,-0.5232705122640228,0.282,0.1833713999999999,-0.5337700846864418,0.49,0.05378999999999997,-0.5231278863185759,0.782,alpha2
"('Fz', 'F4')",0.0,-0.5245775678677352,0.5245775678677352,0.5512824000000002,-0.700908310858357,0.152,0.4782242000000005,-0.656644832680327,0.23,0.38434239999999975,-0.6453837223897876,0.318,0.31269260000000026,-0.5959090864897214,0.476,0.23452460000000022,-0.5931769643677873,0.624,0.1382404000000001,-0.567000842904635,0.644,alpha1
"('Fp2', 'C3')",0.0,-0.5231457534228368,0.5231457534228368,0.7315972000000001,-0.5835960094187619,0.026,0.5878325999999999,-0.579855170148069,0.088,0.45502500000000046,-0.5855732835620591,0.172,0.2549546000000001,-0.573533235809626,0.348,0.12861860000000003,-0.5608966716258266,0.572,0.022621199999999973,-0.5619103565979803,0.888,beta1
"('Fp1', 'F8')",0.0,-0.5208857100151674,0.5208857100151674,0.5567137999999998,-0.6829529432817717,0.12,0.49930020000000025,-0.6368986609892544,0.192,0.3965533999999997,-0.6232845311760051,0.262,0.25565539999999987,-0.6162793586009884,0.464,0.1469194,-0.5966850964848013,0.588,0.032374599999999996,-0.5794085982677577,0.842,alpha2
"('Fp2', 'F4')",0.0,-0.5169638488712026,0.5169638488712026,0.5830425999999999,-0.6745706323962886,0.09,0.4639612,-0.6534748397465315,0.156,0.3491334000000001,-0.6415241513147532,0.242,0.19935800000000004,-0.6227954149861333,0.472,0.09015840000000004,-0.5980895152825089,0.67,0.012684400000000014,-0.5882791930694835,0.952,alpha1
"('Fp1', 'C3')",0.0,-0.5163510872337354,0.5163510872337354,0.7053171999999995,-0.5745504443947184,0.056,0.6129274000000002,-0.5437776823974848,0.088,0.5064395999999998,-0.5423361981072288,0.14,0.35204719999999995,-0.5360771884655712,0.298,0.22804760000000018,-0.5193994511378349,0.406,0.08872660000000004,-0.508117820099233,0.714,alpha1
"('F3', 'F4')",0.0,-0.5150818339803063,0.5150818339803063,0.6915791999999993,-0.5852445724762498,0.07,0.607846,-0.5594215281900154,0.124,0.4895465999999996,-0.5732373729379888,0.172,0.3354672000000003,-0.5392927574681454,0.312,0.20382420000000012,-0.5329767002988454,0.444,0.06499659999999993,-0.524493206035206,0.752,alpha1
"('F8', 'O2')",0.0,-0.514292735741471,0.514292735741471,0.6428238000000004,-0.6049004901320513,0.05,0.5410724,-0.6017568099741907,0.136,0.43503500000000017,-0.5847280372874246,0.182,0.2939060000000002,-0.5687593527387299,0.36,0.1670710000000001,-0.5557170272757609,0.524,0.050428599999999955,-0.5457173252493741,0.818,alpha2
"('T3', 'T6')",0.0,-0.5135608943198262,0.5135608943198262,0.7295248000000006,-0.5456698508255994,0.04,0.6505059999999998,-0.5162906738203122,0.052,0.5680082000000004,-0.5151063846442553,0.098,0.4063436000000003,-0.5000445754834656,0.204,0.2812042000000003,-0.4889346046659717,0.32,0.10858259999999995,-0.47818085358006424,0.668,alpha2
"('T4', 'C4')",0.0,-0.5134846756007845,0.5134846756007845,0.7008896,-0.579252971708098,0.064,0.6328138000000005,-0.5537238484216795,0.064,0.5373946000000005,-0.538862672319926,0.142,0.3483333999999997,-0.5347678093922297,0.26,0.23244599999999987,-0.5249287290531117,0.426,0.058687199999999995,-0.5225323273142253,0.76,beta2
"('Fp2', 'C3')",0.0,-0.5105425563330371,0.5105425563330371,0.6785889999999999,-0.5853992219205927,0.052,0.6084475999999996,-0.5561268729731155,0.106,0.47916160000000013,-0.5572219329174567,0.154,0.3062876000000004,-0.5481781997366078,0.326,0.18911299999999998,-0.5301519513221205,0.454,0.05258279999999998,-0.5271074759210087,0.806,alpha1
"('Fz', 'F4')",0.0,-0.5092899280531816,0.5092899280531816,0.7515139999999997,-0.5540802678447216,0.028,0.6592232,-0.5315166832632084,0.06,0.5515804,-0.5324969059867063,0.122,0.4302625999999998,-0.5045143423767698,0.19,0.28145820000000016,-0.4966609361031275,0.336,0.09720479999999997,-0.4932831377653857,0.618,beta2
"('Fp2', 'C4')",0.0,-0.506781854849801,0.506781854849801,0.7180310000000006,-0.5841703197693789,0.046,0.5874015999999994,-0.5782497376373789,0.11,0.5067285999999995,-0.5669154115119857,0.132,0.3159129999999997,-0.5540465537210504,0.34,0.19538020000000023,-0.5434687429190221,0.528,0.04307539999999994,-0.5426387730662336,0.812,beta1
"('F8', 'T4')",0.0,-0.5063779739123035,0.5063779739123035,0.7773399999999998,-0.5116150501574948,0.034,0.6873292000000002,-0.5060807353903696,0.062,0.6163867999999995,-0.4966914153477832,0.074,0.45026819999999973,-0.48983628587572836,0.186,0.2750294000000002,-0.4942999088607273,0.358,0.09155219999999994,-0.48312801156560553,0.646,beta2
"('Fp1', 'Cz')",0.0,-0.5061690651106945,0.5061690651106945,0.7085264,-0.5570182821824449,0.052,0.6550970000000003,-0.5241358791247738,0.078,0.5545808000000002,-0.5231882354722489,0.122,0.37449620000000017,-0.5226555680035078,0.262,0.24851899999999977,-0.511451729975027,0.396,0.07663360000000001,-0.5027196577482472,0.692,alpha2
"('F8', 'Cz')",0.0,-0.5019642685477053,0.5019642685477053,0.6829500000000003,-0.5723904709186269,0.072,0.6278012000000003,-0.553842506669332,0.088,0.5259979999999999,-0.5446937171800026,0.15,0.33571939999999995,-0.5497821359650874,0.316,0.2310769999999999,-0.5296933432950659,0.442,0.06355779999999991,-0.515319464809287,0.728,alpha2
"('Fp2', 'Fz')",0.0,-0.5000380410839629,0.5000380410839629,0.5888232,-0.6584984493681703,0.07,0.4842205999999999,-0.6186655360752014,0.132,0.3916174000000001,-0.6124276485759775,0.242,0.30666439999999967,-0.5826348913684278,0.4,0.19649720000000012,-0.5690462149498471,0.558,0.060109399999999986,-0.5541092039501924,0.782,alpha1
"('T6', 'Pz')",0.0,0.49700885626500524,0.49700885626500524,0.6907125999999999,0.5766946204900494,0.064,0.5797863999999998,0.5787722133543685,0.108,0.5023806,0.5600398004428457,0.178,0.32688960000000017,0.5424842855155092,0.298,0.2255342,0.5357814238022379,0.472,0.06850159999999995,0.5144177851887519,0.732,alpha1
"('Fz', 'O2')",0.0,-0.4969098359824463,0.4969098359824463,0.7555381999999996,-0.5224162429909955,0.034,0.6645416000000002,-0.5165413653295966,0.054,0.5787072000000005,-0.5045185947413574,0.078,0.4088928,-0.49099046734878254,0.192,0.2693992000000003,-0.4822228307586977,0.322,0.08603139999999998,-0.4795295535365279,0.664,alpha2
"('F3', 'C3')",0.0,-0.4955003576919027,0.4955003576919027,0.7596574,-0.583134358901409,0.008,0.6254705999999988,-0.5753642273887951,0.06,0.5084936000000004,-0.5619490246569663,0.086,0.32599300000000025,-0.5407092804839636,0.214,0.16738560000000008,-0.5375848217578875,0.44,0.03821640000000001,-0.5243910132105165,0.822,beta1
"('Fp1', 'F3')",0.0,-0.49398361867049745,0.49398361867049745,0.7770735999999999,-0.5416140290437678,0.004,0.6893321999999998,-0.5204357435892082,0.006,0.5735783999999999,-0.5119195625398851,0.054,0.36926519999999985,-0.504677318339789,0.182,0.20868380000000014,-0.49511511652991375,0.35,0.04755019999999993,-0.4885061594402217,0.77,delta
"('Fp1', 'C3')",0.0,-0.49307928080694,0.49307928080694,0.7694822,-0.5310366798407362,0.022,0.6851266000000006,-0.5145910437060015,0.058,0.5756029999999999,-0.5137908169506291,0.112,0.41031460000000025,-0.5018607344724537,0.234,0.2587716,-0.49602224289465535,0.38,0.08362080000000001,-0.4859988539787438,0.678,delta
"('F7', 'T3')",0.0,-0.48923963603475035,0.48923963603475035,0.7387134000000004,-0.5575132092200273,0.04,0.6665504000000007,-0.5367066239158519,0.094,0.5672793999999999,-0.5341235351696109,0.148,0.4335193999999997,-0.5212080963961372,0.264,0.30088980000000054,-0.5068874120848753,0.374,0.11872660000000007,-0.4919483986285475,0.63,beta1
"('C3', 'Pz')",0.0,-0.48441047919496844,0.48441047919496844,0.7651334000000002,-0.5234213687354037,0.036,0.7032674000000005,-0.5029222036352972,0.036,0.5581876000000003,-0.5142007615332941,0.108,0.3891561999999999,-0.5134749713315697,0.214,0.2869484,-0.4885771490025167,0.35,0.09681400000000005,-0.4859531508839603,0.66,alpha2
"('Fp1', 'F4')",0.0,-0.48306902227774395,0.48306902227774395,0.7814170000000001,-0.5146682409615759,0.028,0.7029638000000001,-0.49822547103700343,0.07,0.621868,-0.49298705049488256,0.1,0.47465779999999974,-0.4746197103856224,0.17,0.3293419999999998,-0.4689298926066987,0.294,0.14810640000000003,-0.46266680145286027,0.558,beta2
"('T4', 'C4')",0.0,-0.48034473621431184,0.48034473621431184,0.7047403999999998,-0.5750134405922391,0.042,0.5932962000000003,-0.5643692295307587,0.058,0.5093659999999999,-0.540822694029915,0.1,0.3348530000000004,-0.525285266431859,0.242,0.20068699999999995,-0.5159394661840548,0.39,0.041172199999999944,-0.5124157305051021,0.782,alpha2
"('F4', 'O1')",0.0,-0.4793837179890888,0.4793837179890888,0.7830131999999996,-0.4954988820620823,0.034,0.6824540000000003,-0.4896646997665549,0.056,0.6075610000000001,-0.4810357402454271,0.048,0.4202257999999999,-0.483352596969726,0.156,0.2610331999999998,-0.4804395368422463,0.308,0.09866259999999986,-0.4713626672575932,0.626,alpha2
"('T4', 'Cz')",0.0,-0.47583645921374806,0.47583645921374806,0.7829955999999999,-0.5146193427038865,0.034,0.7139506000000004,-0.4857725386518644,0.052,0.6363650000000001,-0.47399189817103665,0.076,0.46318839999999983,-0.48166443904028894,0.192,0.3660917999999999,-0.4544235497289607,0.25,0.14423440000000004,-0.45304515769628806,0.544,alpha2
"('Fp2', 'C3')",0.0,-0.475382685934448,0.475382685934448,0.8451576000000002,-0.4528718426969592,0.012,0.8090972000000003,-0.4276942473546355,0.02,0.7126553999999993,-0.4451988613926626,0.062,0.5501331999999997,-0.4475345735633283,0.114,0.44368299999999977,-0.42615567047646813,0.168,0.20842460000000013,-0.419978301035073,0.406,delta
"('F4', 'T4')",0.0,-0.47491276648631875,0.47491276648631875,0.7843688000000008,-0.5219506314905934,0.042,0.7271549999999993,-0.500921160104039,0.052,0.6151467999999997,-0.5117590131325962,0.114,0.4767930000000001,-0.4946162860441956,0.208,0.3229372000000001,-0.4898781709349111,0.322,0.15619200000000016,-0.46565709987919296,0.54,beta1
"('F7', 'O1')",0.0,-0.47435669998005814,0.47435669998005814,0.7044037999999999,-0.5694149268854932,0.056,0.6160597999999995,-0.5348435803541856,0.078,0.5622374,-0.5186033405061798,0.106,0.3859538000000002,-0.5095976615215405,0.248,0.24057879999999998,-0.5094641702821756,0.404,0.08530980000000006,-0.497691200788427,0.672,alpha2
"('F7', 'P4')",0.0,-0.4706829590060478,0.4706829590060478,0.7192402000000007,-0.5478696791100471,0.038,0.6328572,-0.5447366172509865,0.094,0.5362728,-0.5245515806467226,0.146,0.39170659999999985,-0.5121085532751258,0.222,0.23546540000000007,-0.5092888186347214,0.374,0.0866322000000001,-0.49793933130750584,0.69,alpha2
"('Fp1', 'Cz')",0.0,-0.46917619106696556,0.46917619106696556,0.7778915999999996,-0.5069752071166899,0.028,0.707468599999999,-0.49284430078426533,0.04,0.6295335999999995,-0.4802671225789584,0.058,0.4697447999999995,-0.47501475857681746,0.18,0.3288384000000003,-0.46716437080383927,0.268,0.14313439999999997,-0.45972333935919757,0.536,alpha1
"('Fp1', 'Fz')",0.0,-0.46861650001459115,0.46861650001459115,0.8021546000000005,-0.5144229266888348,0.008,0.7134558000000008,-0.5120324185770437,0.02,0.5685728,-0.5040322826278344,0.046,0.36767279999999963,-0.508913253165414,0.19,0.22389120000000012,-0.4940804804615149,0.346,0.05566139999999995,-0.49077384675373964,0.766,delta
"('Fp2', 'Cz')",0.0,-0.4683555733272294,0.4683555733272294,0.7651736,-0.5073138617033317,0.03,0.7264380000000005,-0.4712649148414633,0.032,0.6239164000000003,-0.48397509303151315,0.08,0.46627219999999975,-0.47557642112957615,0.18,0.3312239999999999,-0.46937200348280433,0.302,0.1338272,-0.46114902807650165,0.552,alpha2
"('T4', 'C4')",0.0,-0.4670806163487935,0.4670806163487935,0.7725987999999998,-0.5248421282710846,0.04,0.7270004000000002,-0.5057428456200119,0.048,0.6383255999999997,-0.5002549025686566,0.098,0.4708649999999998,-0.490382953015321,0.186,0.35337160000000045,-0.47574914378902605,0.32,0.1371749999999999,-0.4752854885454115,0.588,beta1
"('Fz', 'Cz')",0.0,-0.46698372480152256,0.46698372480152256,0.7507825999999999,-0.5247807534162783,0.042,0.6943600000000002,-0.49440566506439915,0.054,0.5760270000000003,-0.5100969792065506,0.12,0.4452120000000001,-0.5019037459183889,0.224,0.3441900000000004,-0.478467055954649,0.32,0.1449869999999999,-0.46937168102098914,0.57,alpha2
"('F7', 'C3')",0.0,-0.4656798902400666,0.4656798902400666,0.6750544000000002,-0.5856511744354513,0.072,0.6145146,-0.5576310522689509,0.126,0.508812,-0.5518888757877731,0.174,0.3601632,-0.5508483021033733,0.326,0.2760884000000001,-0.5181126853833325,0.404,0.09051439999999991,-0.5031018675942391,0.662,alpha2
"('T5', 'O2')",0.0,0.46484486406348263,0.46484486406348263,0.7415089999999999,0.5336027300096122,0.072,0.6917494000000003,0.5097544365202055,0.09,0.6330839999999999,0.486187217343675,0.12,0.49575080000000027,0.4781238026125007,0.184,0.3438046000000001,0.47346730585977126,0.296,0.16468420000000017,0.45583811537832547,0.526,alpha1
"('Fp1', 'F7')",0.0,-0.4639354868387754,0.4639354868387754,0.7368906000000003,-0.540851002378777,0.048,0.6834043999999997,-0.5183123008569275,0.08,0.6047955999999997,-0.5042428526995805,0.078,0.5009338,-0.467858558877619,0.148,0.2938850000000001,-0.4876824251588806,0.322,0.1175446000000001,-0.47867550011425875,0.602,gamma
"('T6', 'O2')",0.0,-0.4631918800463084,0.4631918800463084,0.7861778000000003,-0.5254854514922325,0.022,0.6954529999999999,-0.5234147153389015,0.036,0.6285469999999996,-0.49618835180133253,0.064,0.4889389999999998,-0.47935923582918993,0.138,0.3320277999999999,-0.4730365669761918,0.266,0.11710019999999999,-0.4677614806300277,0.564,beta2
"('F4', 'T4')",0.0,-0.46312215901017106,0.46312215901017106,0.7955066000000006,-0.49399040308166353,0.026,0.7174821999999996,-0.4798891636440131,0.05,0.6394281999999996,-0.47806935123580824,0.086,0.4999583999999996,-0.4683180803553275,0.154,0.37296940000000006,-0.46424669275719777,0.256,0.1576538,-0.4559944093452318,0.498,alpha2
"('Fp1', 'Cz')",0.0,-0.46248231936071277,0.46248231936071277,0.8177425999999998,-0.4782233481490503,0.012,0.7515959999999994,-0.4711090879558315,0.034,0.6761661999999995,-0.46530721469550246,0.068,0.5075256000000006,-0.46085257868503604,0.144,0.40200219999999987,-0.44772344754203447,0.21,0.18506000000000003,-0.44239685816502367,0.48,beta2
"('F3', 'T3')",0.0,-0.4623515126400043,0.4623515126400043,0.7576459999999996,-0.5417001218751337,0.056,0.7205168000000003,-0.5150538795777201,0.068,0.6404066000000005,-0.4937449186051305,0.094,0.49489039999999984,-0.481765301916902,0.198,0.37992840000000017,-0.4733691246661594,0.286,0.17440099999999983,-0.46128077718487137,0.512,beta1
"('F4', 'Cz')",0.0,-0.4619764870171673,0.4619764870171673,0.7694446000000004,-0.5602494834657437,0.034,0.6661153999999999,-0.547145383692087,0.068,0.5732713999999998,-0.5389335694612172,0.118,0.42992840000000004,-0.5125575440117142,0.212,0.30489760000000005,-0.49642799640026763,0.352,0.10122400000000004,-0.4982698772283769,0.662,beta1
"('T6', 'C4')",0.0,0.46146050807532735,0.46146050807532735,0.7758788000000005,0.5057693495350163,0.02,0.7069216000000004,0.48889743337629815,0.052,0.616263,0.4854047784895554,0.084,0.45840200000000014,0.48152811427400605,0.17,0.3456447999999998,0.4649952858834334,0.292,0.15752459999999993,0.45199580504237635,0.522,alpha1
"('Fp1', 'T3')",0.0,-0.4610577855006023,0.4610577855006023,0.6630593999999993,-0.5873661831601505,0.05,0.6245433999999997,-0.5476785584226412,0.086,0.5072724000000002,-0.54062334845842,0.132,0.32220180000000004,-0.5397174599141432,0.286,0.22185920000000017,-0.5199637549658713,0.414,0.06004900000000002,-0.5199404833722305,0.756,alpha2
"('Fp1', 'C3')",0.0,-0.4596142414871732,0.4596142414871732,0.8252352000000005,-0.46584001929913293,0.018,0.7771727999999996,-0.4543018182237234,0.038,0.6930644000000002,-0.4622637562139951,0.066,0.564115,-0.4450801563172858,0.092,0.43449960000000004,-0.4422490292620028,0.216,0.18935899999999992,-0.43830900923142974,0.464,beta2
"('F4', 'T4')",0.0,-0.4569022236276214,0.4569022236276214,0.7677129999999995,-0.5084875867747211,0.034,0.7086517999999996,-0.487259548288571,0.062,0.6342342000000004,-0.4814018768766254,0.104,0.49214299999999994,-0.4842442229506903,0.154,0.35245619999999994,-0.4770884277051863,0.302,0.15783680000000017,-0.46289520738116163,0.508,beta2
"('Fp1', 'Fp2')",0.0,-0.4549121291029593,0.4549121291029593,0.7780854000000001,-0.5196642155052048,0.034,0.7217245999999999,-0.49177810353863044,0.038,0.6098507999999992,-0.4858707127445339,0.074,0.4683513999999999,-0.46989442304221496,0.118,0.3032226,-0.4791085399982309,0.278,0.12623600000000007,-0.4660994883966478,0.576,beta2
"('F7', 'Cz')",0.0,-0.4535975210852117,0.4535975210852117,0.7727696000000006,-0.4961809229058584,0.046,0.6843773999999998,-0.49982536945679107,0.056,0.6245235999999995,-0.48346579597111106,0.092,0.4575907999999998,-0.47760499876429713,0.186,0.34232680000000004,-0.4691308105936,0.304,0.14647500000000016,-0.46000980121226237,0.548,alpha1
"('F3', 'F4')",0.0,-0.4534352519957176,0.4534352519957176,0.8182354000000002,-0.503497029254184,0.01,0.7441748000000002,-0.48349780625430155,0.034,0.6552322000000008,-0.48356619298824144,0.078,0.5614855999999995,-0.453302888908064,0.134,0.4060672000000001,-0.45043059050736406,0.222,0.18804860000000004,-0.4437511231871703,0.454,beta1
"('Fp1', 'C3')",0.0,-0.4533711453730109,0.4533711453730109,0.8560484000000003,-0.4732465126061283,0.008,0.7929916,-0.4554781316816856,0.016,0.6735042000000003,-0.4649028531604812,0.032,0.48762240000000007,-0.4675107789200033,0.11,0.3310603999999999,-0.4569754818189073,0.206,0.13858560000000003,-0.44576702254463413,0.514,theta
"('F4', 'F8')",0.0,-0.4526264639214445,0.4526264639214445,0.6933342000000001,-0.5609974796513855,0.094,0.646717,-0.5376194508276415,0.096,0.5950667999999992,-0.5178092430999308,0.148,0.46484380000000003,-0.5086145347799187,0.25,0.36616660000000023,-0.48460949685060806,0.344,0.18202839999999992,-0.4771026242962292,0.534,alpha1
"('F3', 'C3')",0.0,-0.4505606004969046,0.4505606004969046,0.8597191999999992,-0.4800839056427206,0.004,0.7780218,-0.46790478653962453,0.012,0.6538425999999998,-0.4723769562639445,0.038,0.5160207999999996,-0.4543406617104413,0.108,0.33352079999999995,-0.4608054894533962,0.196,0.12634359999999994,-0.45623491548012735,0.542,beta2
"('F7', 'F4')",0.0,-0.4495940445291745,0.4495940445291745,0.7802514000000004,-0.4956626608671515,0.046,0.7122608000000005,-0.48826971649238127,0.066,0.6624492000000003,-0.4667184698833331,0.088,0.5267449999999999,-0.45281847125824864,0.162,0.39400879999999944,-0.4513336355355246,0.246,0.21048579999999978,-0.4405529048760812,0.464,alpha1
"('O1', 'O2')",0.0,0.44748068375736116,0.44748068375736116,0.6741448000000003,0.5973937147041257,0.092,0.6082821999999998,0.5695493770743825,0.124,0.5751667999999999,0.541461558307648,0.166,0.4110948000000002,0.5285431890259319,0.3,0.27172480000000027,0.5229763084997827,0.424,0.09777960000000012,0.5109755591561286,0.698,delta
"('O2', 'Pz')",0.0,0.44587562490204985,0.44587562490204985,0.8078200000000005,0.5021251704225391,0.012,0.7061076,0.5006641748061098,0.048,0.6245378,0.4909910387590643,0.084,0.48858199999999996,0.46794279035411057,0.154,0.3091257999999997,0.4796964691084357,0.316,0.12448080000000003,0.46676806105847424,0.61,delta
"('O1', 'O2')",0.0,0.4458043774182162,0.4458043774182162,0.8285250000000003,0.47121408825378525,0.02,0.7802085999999997,0.4423238807801933,0.028,0.7082495999999999,0.44431094420711903,0.048,0.5623681999999999,0.44921245467815085,0.114,0.4599053999999999,0.4329430320083222,0.18,0.20547879999999996,0.43378743043331064,0.408,beta2
"('Fp1', 'Fz')",0.0,-0.445344415718684,0.445344415718684,0.8137858000000002,-0.5069360886619065,0.004,0.7402661999999998,-0.4873063928601455,0.026,0.6087130000000004,-0.49268060803325553,0.052,0.4110514000000002,-0.4922306270911642,0.172,0.26773139999999973,-0.4799073682621202,0.292,0.08351719999999999,-0.4702519634054413,0.66,theta
"('Fp2', 'T5')",0.0,-0.44521978506828336,0.44521978506828336,0.7770858000000008,-0.49977880022242344,0.048,0.68948,-0.5047591582508969,0.076,0.6330248000000005,-0.4780890138535378,0.1,0.5009685999999997,-0.4619291840315001,0.168,0.38341919999999996,-0.4555849558998688,0.25,0.1735436,-0.45375934050151634,0.478,alpha2
"('F4', 'C4')",0.0,-0.4426569590259815,0.4426569590259815,0.7872620000000002,-0.5331333099560361,0.032,0.7259555999999999,-0.5150522613317305,0.048,0.6355152,-0.5207396244674586,0.088,0.5048215999999993,-0.4876914484868509,0.16,0.38150799999999996,-0.4705022580233182,0.248,0.15332539999999997,-0.46436851549250796,0.492,beta1
"('F4', 'T3')",0.0,-0.441240955796805,0.441240955796805,0.7773475999999998,-0.5133639762632439,0.034,0.7326878000000009,-0.4770991029204655,0.05,0.6411897999999997,-0.4661679938816855,0.068,0.44553420000000005,-0.4842380825766,0.178,0.3699658000000003,-0.45386078091292537,0.272,0.14433800000000008,-0.4579163185153598,0.536,alpha2
"('F7', 'T3')",0.0,-0.441092309804744,0.441092309804744,0.7939373999999996,-0.5034289682582006,0.026,0.7305505999999997,-0.4859456174692555,0.058,0.6581391999999994,-0.4680642728925108,0.086,0.5238560000000002,-0.4605833982906626,0.144,0.43141379999999985,-0.4547897995402966,0.242,0.2120358000000001,-0.4368028938858332,0.424,beta2
"('O2', 'Cz')",0.0,0.43897588657464803,0.43897588657464803,0.7457942000000003,0.5333071072447064,0.054,0.6911415999999998,0.5086687557705594,0.064,0.5727153999999995,0.5171563414840634,0.128,0.4613232000000002,0.49088619363279073,0.204,0.3373912000000001,0.477506390884261,0.328,0.16134700000000002,0.47079167157719154,0.558,alpha1
"('F3', 'Fz')",0.0,-0.4376717512459735,0.4376717512459735,0.8506362000000001,-0.46046467870588387,0.008,0.7987095999999998,-0.44416086174712,0.014,0.7115548000000003,-0.4389245506460647,0.032,0.6103351999999993,-0.4219727594667562,0.06,0.44366739999999966,-0.4241045282749729,0.142,0.2259286000000002,-0.4173578438105459,0.378,beta2
"('Fp1', 'F4')",0.0,-0.4370314617403229,0.4370314617403229,0.7993316000000003,-0.4935376424894435,0.014,0.7597048000000002,-0.4699622550623122,0.024,0.6626527999999994,-0.4679791726562401,0.052,0.4879214000000003,-0.47731110167328467,0.156,0.34557700000000025,-0.46192274777587833,0.246,0.144403,-0.45496754521400073,0.534,theta
"('Fz', 'C3')",0.0,-0.4363559852701277,0.4363559852701277,0.7874701999999998,-0.4825264069424084,0.01,0.7472671999999998,-0.45391793196688945,0.038,0.6431080000000005,-0.4692348672442815,0.08,0.4708254,-0.46673086204448755,0.152,0.3873984000000001,-0.44674264513169193,0.224,0.1815254000000001,-0.44450254223957036,0.456,alpha2
"('O2', 'P3')",0.0,0.4360502022804328,0.4360502022804328,0.852238,0.473244650710085,0.014,0.7701798,0.4596037227129369,0.022,0.7183768000000003,0.44242051782747005,0.044,0.5943975999999996,0.42770600612838083,0.094,0.4361959999999999,0.43380652215562615,0.2,0.19984760000000007,0.4257314057244803,0.422,delta
"('F7', 'T3')",0.0,-0.43571741248822027,0.43571741248822027,0.7873808000000003,-0.48859196097020247,0.032,0.7578488000000005,-0.4479320732248109,0.034,0.7127847999999997,-0.42944824953018024,0.058,0.5502496000000002,-0.4435837640553675,0.126,0.45275439999999983,-0.42620617496907803,0.188,0.23272260000000014,-0.4155462292848264,0.356,alpha2
"('Fz', 'C3')",0.0001,-0.434972345005691,0.434972345005691,0.8736175999999996,-0.43817351769500734,0.01,0.8251274000000002,-0.4292801619494048,0.022,0.7630675999999997,-0.42489894806957995,0.028,0.6608557999999995,-0.40897221494378133,0.056,0.5424167999999996,-0.4020931622281873,0.106,0.34382859999999993,-0.3934717805268352,0.278,beta1
"('Fp1', 'C3')",0.0,-0.43366219979136833,0.43366219979136833,0.7692853999999999,-0.4962969110686846,0.024,0.7313810000000006,-0.463681973503146,0.038,0.6486245999999998,-0.464832949155137,0.082,0.5149514000000002,-0.4595818287537527,0.162,0.40955299999999983,-0.44680200160768174,0.256,0.20883719999999992,-0.42974694467981805,0.436,alpha2
"('F7', 'C3')",0.0,-0.43306747316086475,0.43306747316086475,0.8312054,-0.45634741433424203,0.014,0.7396510000000002,-0.4642795799064113,0.026,0.6815213999999999,-0.4483425937702098,0.046,0.5082171999999998,-0.4536268099240307,0.1,0.40530959999999977,-0.43537915298416235,0.156,0.1880196,-0.42915992304801237,0.434,alpha1
"('F4', 'Pz')",0.0,-0.4316344196235279,0.4316344196235279,0.8481122000000006,-0.4272920694123763,0.008,0.8002231999999999,-0.4251746641302238,0.032,0.7079236000000001,-0.4356887221572235,0.038,0.5785868000000001,-0.429913120542965,0.122,0.4894766000000004,-0.4038606260068568,0.162,0.28837779999999974,-0.39754080529801333,0.32,alpha2
"('Fz', 'F8')",0.0,-0.43109044728930146,0.43109044728930146,0.7308810000000001,-0.5223734389581877,0.048,0.6891402000000001,-0.5023945451634526,0.064,0.6448342000000005,-0.4861528892188678,0.118,0.5190509999999998,-0.4714656002908486,0.208,0.4213981999999996,-0.4545781373216106,0.25,0.25171380000000015,-0.44362773191581856,0.434,alpha1
"('F3', 'C3')",0.0,-0.42898291157861757,0.42898291157861757,0.8045518,-0.48606871722224226,0.01,0.7442973999999998,-0.45496847165845394,0.01,0.6678143999999994,-0.45815643929440203,0.044,0.49932639999999995,-0.4626624362458234,0.128,0.3970894000000003,-0.43819938310901635,0.196,0.17546280000000006,-0.43600875644615156,0.45,alpha2
"('T4', 'P4')",0.0,-0.42833866224332373,0.42833866224332373,0.7501368000000003,-0.5424944789329749,0.06,0.7006188,-0.5077362923616037,0.068,0.6099603999999997,-0.5068698071468373,0.126,0.46099140000000016,-0.4949769062334609,0.192,0.3456783999999998,-0.48293363548649265,0.324,0.1320753999999999,-0.4797571607599016,0.576,beta2
"('Fp2', 'F8')",0.0,-0.42615129235223853,0.42615129235223853,0.7763480000000003,-0.520524556694826,0.02,0.7351592000000001,-0.4848450148744562,0.022,0.6601569999999994,-0.4808951703354607,0.068,0.5178071999999999,-0.46022110718220893,0.126,0.3425117999999998,-0.4673449822509708,0.26,0.1507606,-0.4552666671519719,0.54,beta2
"('P3', 'Pz')",0.0,-0.42573999299670406,0.42573999299670406,0.7573446000000005,-0.509992400972344,0.04,0.7202751999999996,-0.4810890996315217,0.058,0.6177249999999996,-0.48486596222040246,0.09,0.47426020000000013,-0.4777000277376333,0.2,0.3944786,-0.4557480328820297,0.274,0.1770536000000001,-0.45709118573010715,0.518,alpha2
"('F8', 'T4')",0.0001,-0.4248151854989137,0.4248151854989137,0.875833,-0.4143648356151304,0.014,0.8353026000000001,-0.4102600863152557,0.014,0.7656940000000001,-0.4123723149789219,0.032,0.6653138000000001,-0.406880175867451,0.068,0.5242668000000001,-0.4037644300343724,0.114,0.3402752000000003,-0.391159662020667,0.274,beta1
"('Fz', 'T4')",0.0,-0.4241858449353296,0.4241858449353296,0.8051542000000003,-0.478844946393778,0.018,0.7372230000000002,-0.456815938352872,0.04,0.6514110000000007,-0.46150438051254505,0.06,0.49496799999999996,-0.4626128293756774,0.14,0.37752639999999993,-0.4454822427344644,0.218,0.1683728000000001,-0.44357703013289956,0.484,alpha2
"('Fz', 'Cz')",0.0,-0.4240141098416298,0.4240141098416298,0.7847822,-0.5311929872252468,0.026,0.6794689999999994,-0.5333466858980744,0.094,0.6184325999999999,-0.5096259480894206,0.118,0.49477440000000006,-0.4924325121782313,0.208,0.372674,-0.48524039835867927,0.324,0.22588819999999982,-0.4677891783318589,0.504,beta1
"('T5', 'O1')",0.0,-0.42242597136936527,0.42242597136936527,0.7621242000000004,-0.5492914358538571,0.046,0.6913920000000012,-0.523626238030972,0.058,0.6181414000000004,-0.5124479332599383,0.074,0.45518980000000003,-0.49261379169159375,0.148,0.3352429999999998,-0.4769456224519444,0.268,0.10422800000000006,-0.4791469977873059,0.588,beta2
"('T6', 'P3')",0.0,0.42165160753986547,0.42165160753986547,0.7947417999999999,0.4872162593092067,0.03,0.7213435999999993,0.47501279033200683,0.054,0.6789207999999998,0.46409895441283366,0.084,0.5736882000000004,0.4427976506530853,0.136,0.47168360000000015,0.43134162153201455,0.206,0.30284620000000007,0.41279537282369966,0.318,alpha1
"('F4', 'T4')",0.0001,-0.420427868887767,0.420427868887767,0.8226489999999999,-0.4516491230799423,0.024,0.7951513999999995,-0.43270275760103805,0.026,0.7357485999999998,-0.4300771722062297,0.048,0.5960101999999999,-0.42856467122399555,0.102,0.4776761999999998,-0.41540989400596934,0.184,0.2536935999999999,-0.41360444047074496,0.37,gamma
"('F3', 'T3')",0.0,-0.4191325301061367,0.4191325301061367,0.7747355999999996,-0.5328689360675608,0.06,0.7218870000000004,-0.49603283696420897,0.066,0.6738122000000004,-0.4742256665375215,0.1,0.5465168000000005,-0.46475685690783236,0.15,0.4698008,-0.4451479412076803,0.228,0.2529753999999999,-0.43535485274459995,0.406,beta2
"('Fp2', 'F8')",0.0001,-0.41902766202791025,0.41902766202791025,0.8523888,-0.45111778193671603,0.014,0.8106882000000004,-0.445732516217412,0.022,0.7585681999999994,-0.4254577561218677,0.028,0.6549727999999999,-0.4096501263513612,0.072,0.5117333999999997,-0.41313028978211114,0.142,0.2884133999999999,-0.40392339041043845,0.28,beta1
"('Fp1', 'C4')",0.0,-0.4169277862880971,0.4169277862880971,0.8611203999999998,-0.4191201514095682,0.008,0.8424700000000003,-0.4060222687323272,0.012,0.7860760000000011,-0.40879786499987336,0.026,0.6313455999999995,-0.4101089560959536,0.06,0.4803935999999998,-0.4078196683438743,0.138,0.29549959999999986,-0.3974994391596774,0.332,theta
"('Fz', 'F8')",0.0,-0.41527997496137753,0.41527997496137753,0.8589532000000004,-0.4465875377541375,0.016,0.7765498000000004,-0.4554013336485333,0.044,0.7132466,-0.4448865962404824,0.062,0.6008198000000003,-0.4321742265513703,0.104,0.49701940000000006,-0.417988438717181,0.176,0.28369639999999985,-0.4135733819351099,0.35,beta1
"('F7', 'C4')",0.0,-0.4142864478847046,0.4142864478847046,0.8096326000000001,-0.4697327167792964,0.014,0.7403642000000004,-0.4665544627746494,0.028,0.6526973999999995,-0.4632735132739419,0.066,0.5063372,-0.45547471076142565,0.136,0.35916179999999964,-0.4546362728663718,0.258,0.1607746000000001,-0.44811344421509103,0.498,alpha2
"('F3', 'C3')",0.0,-0.4141384714304679,0.4141384714304679,0.8435196000000003,-0.4759558022416147,0.012,0.7886096000000004,-0.4638251620078218,0.026,0.7155621999999989,-0.4546945172600467,0.03,0.5394880000000002,-0.45034150246230636,0.11,0.3664326,-0.44876417660157736,0.162,0.15100280000000013,-0.4388179760230532,0.48,delta
"('Fp2', 'F3')",0.0,-0.4131717900240557,0.4131717900240557,0.8322519999999999,-0.48917166483289737,0.008,0.7769043999999999,-0.46149022234440756,0.024,0.7060498000000005,-0.45004123016592584,0.06,0.6031733999999999,-0.433896043653288,0.098,0.47396000000000027,-0.42386365863491116,0.166,0.2565647999999999,-0.4122807686981518,0.372,theta
"('O2', 'Cz')",0.0,0.4128794663852486,0.4128794663852486,0.8011922,0.4884260269578548,0.036,0.7406699999999996,0.4745144319237491,0.08,0.6485467999999996,0.4815944562927121,0.102,0.5462524000000005,0.45602863359188656,0.14,0.4602912000000006,0.4338466815086572,0.184,0.2449234,0.4324914213635555,0.4,beta2
"('Fp2', 'F7')",0.0,-0.4117078565224263,0.4117078565224263,0.8272196000000002,-0.454804025416621,0.01,0.7615361999999993,-0.4443124310898049,0.022,0.6964328000000002,-0.44296628123078274,0.04,0.5857362000000005,-0.4268637818901442,0.094,0.4311286,-0.4290172696055414,0.198,0.24476840000000016,-0.41955358141298627,0.388,alpha1
"('F3', 'F8')",0.0,-0.409340308893288,0.409340308893288,0.8000688000000002,-0.4825665811517011,0.022,0.7422308000000002,-0.4621606383982339,0.036,0.6957700000000001,-0.4520696084258559,0.058,0.5500559999999994,-0.44263690383336585,0.128,0.4575894000000005,-0.4231327689303658,0.154,0.24219139999999992,-0.42288058249908794,0.392,alpha1
"('F4', 'C3')",0.0007,-0.4090495805679583,0.4090495805679583,0.8579808000000001,-0.40952265550857825,0.02,0.8476712000000007,-0.3747548551348011,0.024,0.8074671999999998,-0.38077493073119933,0.02,0.7047150000000006,-0.36897557463491537,0.052,0.6510416000000003,-0.3533866265421084,0.068,0.4592116000000003,-0.3533711724112421,0.194,alpha1
"('O1', 'O2')",0.0,0.40824318969144197,0.40824318969144197,0.7388154000000003,0.5271681264721867,0.06,0.7111689999999994,0.4979427391106926,0.072,0.6659665999999997,0.474453114628793,0.112,0.5499732000000002,0.4600580082561328,0.166,0.44784120000000005,0.44048871986181376,0.22,0.26990800000000015,0.4336210381196829,0.402,theta
"('Fp1', 'C4')",0.0,-0.4075810099025148,0.4075810099025148,0.8620531999999997,-0.442713934553106,0.018,0.8060593999999999,-0.43683850890172016,0.022,0.7255404000000008,-0.430169467904698,0.038,0.6317729999999998,-0.41618492307780164,0.09,0.471201,-0.4270003384493015,0.166,0.26501659999999994,-0.4093879070003764,0.328,beta1
"('Fp1', 'F3')",0.0001,-0.40723756104568964,0.40723756104568964,0.8460680000000004,-0.4451163635103941,0.014,0.7731947999999996,-0.437726206409584,0.014,0.7187786000000007,-0.4284905322698991,0.07,0.5828745999999996,-0.42391474432933895,0.078,0.5088860000000003,-0.40784167859164094,0.156,0.264965,-0.40687055115580867,0.318,gamma
"('F8', 'Cz')",0.0006,-0.407138742743236,0.407138742743236,0.8614168000000008,-0.39551685854364566,0.024,0.8195302000000001,-0.39845068127286476,0.034,0.7695894,-0.3935497419371566,0.028,0.6629283999999998,-0.3824561681379383,0.098,0.6126419999999996,-0.3630988699323753,0.122,0.4127628000000004,-0.3638484046863347,0.198,alpha1
"('F7', 'F3')",0.0002,-0.4065746342378914,0.4065746342378914,0.8606313999999999,-0.4323169714454413,0.012,0.8125628000000003,-0.42001783015726196,0.016,0.7737633999999998,-0.40386213812308264,0.036,0.6968864000000001,-0.3774694167356672,0.056,0.5699446000000002,-0.38524276463436513,0.102,0.3561551999999998,-0.37663166379992263,0.216,gamma
"('Fp2', 'C3')",0.0005,-0.4041313536430688,0.4041313536430688,0.8760228000000001,-0.4060445349694087,0.006,0.8417610000000001,-0.39972363140043127,0.01,0.7727615999999996,-0.39514054317640646,0.032,0.6838532000000005,-0.38407769978960765,0.072,0.582148,-0.3773429606506492,0.096,0.3881889999999995,-0.37027092969555536,0.208,theta
"('F4', 'F8')",0.0,-0.40356423446712614,0.40356423446712614,0.8560473999999999,-0.4228622384398469,0.018,0.7872948000000001,-0.4305782265073014,0.018,0.7371044000000004,-0.4201988141765928,0.036,0.5854724000000001,-0.42563943221814565,0.082,0.4382039999999998,-0.42713710822362183,0.186,0.2188733999999998,-0.4211842854512725,0.41,gamma
"('Fp1', 'T3')",0.0,-0.40227008490181115,0.40227008490181115,0.7981925999999999,-0.4804716612025864,0.03,0.7658351999999997,-0.4535942565654057,0.04,0.678432,-0.4597391979992897,0.082,0.5670541999999994,-0.43707047263231913,0.122,0.4252768000000001,-0.44501275521454775,0.234,0.24309300000000023,-0.42908488968243297,0.428,theta
"('F8', 'C3')",0.0,0.40219017570730087,0.40219017570730087,0.7919968,0.48625508725486716,0.014,0.7503124,0.46075977280141134,0.038,0.6768622000000002,0.4548437848075477,0.06,0.5759810000000002,0.4330601363053549,0.094,0.43400360000000004,0.4303236444252814,0.2,0.22185640000000031,0.4257998508727546,0.428,gamma
"('O2', 'C3')",0.0,0.4008074665200347,0.4008074665200347,0.7954933999999996,0.4831541612515835,0.034,0.7400361999999998,0.4693691188847271,0.06,0.6567780000000002,0.4794541812362588,0.078,0.5514528000000003,0.45783317526307965,0.128,0.4489847999999999,0.4390368789597169,0.21,0.20996620000000002,0.44139412450733245,0.418,beta2
"('F4', 'C3')",0.0,-0.3969984831525294,0.3969984831525294,0.8415682000000002,-0.4794954517056538,0.032,0.7822060000000001,-0.4592159582076739,0.03,0.6927385999999995,-0.4720443701450939,0.052,0.5675207999999996,-0.4468569355696649,0.104,0.4258349999999998,-0.4416553651133646,0.198,0.21612780000000004,-0.4285248290752339,0.412,beta1
"('T4', 'P4')",0.0004,-0.39668282205832534,0.39668282205832534,0.8417962,-0.43408310605050654,0.018,0.8267277999999999,-0.4210312124606815,0.028,0.7763217999999994,-0.4157370758338319,0.048,0.6855608000000007,-0.40104748148111474,0.094,0.6177625999999998,-0.3901122821238823,0.122,0.3949906,-0.3888750488398946,0.25,beta1
"('F4', 'C4')",0.0,-0.3961805479464136,0.3961805479464136,0.8347524,-0.44358177456429654,0.014,0.7843523999999995,-0.42588816074547126,0.036,0.6828306000000001,-0.44529442906722755,0.07,0.5508580000000001,-0.4413365948076039,0.12,0.4672123999999998,-0.4161436815495956,0.176,0.2546832,-0.41306563190371964,0.35,alpha2
"('F3', 'Cz')",0.0,-0.39611014595314453,0.39611014595314453,0.8466007999999994,-0.4433658917296124,0.032,0.7820896,-0.4345636920898642,0.044,0.7405856000000004,-0.41985942891083977,0.032,0.6042629999999999,-0.4149398932022659,0.086,0.5285942000000001,-0.40101994175093864,0.134,0.3114438,-0.397542088848594,0.312,alpha1
"('F3', 'Cz')",0.0,-0.39457691667605505,0.39457691667605505,0.8474610000000002,-0.45438158110625765,0.012,0.7953242000000004,-0.43163229551123694,0.01,0.7330593999999998,-0.4334628077574202,0.036,0.6113962000000005,-0.4139614103246599,0.066,0.5036967999999998,-0.40412737893539924,0.136,0.27467759999999986,-0.40838070886523964,0.332,beta2
"('F7', 'Fz')",0.0,-0.393927029645505,0.393927029645505,0.8491083999999998,-0.4395723646351516,0.012,0.8058737999999998,-0.42624045134652944,0.01,0.7341854000000002,-0.43058901787440235,0.038,0.6212027999999996,-0.41688717275752574,0.07,0.48199340000000024,-0.41493525637100404,0.15,0.29091159999999966,-0.4002961891583782,0.308,theta
"('O2', 'P3')",0.0,0.39335773041314476,0.39335773041314476,0.8015562000000005,0.4900839690489533,0.03,0.7255785999999997,0.48341768620340614,0.07,0.6796411999999997,0.46764890569638895,0.072,0.5655212000000002,0.44841354895643504,0.152,0.4859754000000001,0.42506588383407407,0.194,0.25897200000000004,0.4245281539442245,0.36,beta2
"('F7', 'F3')",0.0,-0.3932940493288347,0.3932940493288347,0.8231137999999996,-0.5098935844438411,0.016,0.7602914000000007,-0.4794249715357717,0.014,0.6870665999999999,-0.4752807175611463,0.042,0.5486262,-0.45829262109601004,0.086,0.34796200000000016,-0.45523309932463063,0.182,0.13396119999999984,-0.4457035832500231,0.452,theta
"('Fp2', 'Cz')",0.0001,-0.3926673574629298,0.3926673574629298,0.7974915999999995,-0.4760039538824482,0.03,0.7611582000000001,-0.4462811965853204,0.044,0.6978684,-0.4425132022257905,0.054,0.6114234000000003,-0.4207150476231218,0.118,0.5154389999999996,-0.4121966665506461,0.16,0.30741599999999986,-0.40374038825673114,0.33,alpha1
"('T5', 'O1')",0.0001,-0.39205688567997654,0.39205688567997654,0.8398768000000001,-0.45041936072059563,0.008,0.7840036000000007,-0.43918011368222726,0.032,0.7219167999999999,-0.43034839949346215,0.04,0.5906341999999994,-0.4273997266403045,0.092,0.49580720000000006,-0.40856836497505555,0.132,0.24292379999999977,-0.41554406690465523,0.364,gamma
"('T4', 'C4')",0.0,-0.3910584894304817,0.3910584894304817,0.855493200000001,-0.45352901732946754,0.01,0.8128511999999998,-0.44098702967083264,0.008,0.7409956000000002,-0.43056881288596643,0.024,0.5844792,-0.42867317713831055,0.076,0.4546861999999997,-0.4147679397280339,0.12,0.19088740000000032,-0.4271776040209907,0.416,alpha1
"('T6', 'P4')",0.0016,-0.3901736483292318,0.3901736483292318,0.9126903999999993,-0.385206980546675,0.004,0.8502894000000002,-0.39917394804484524,0.006,0.8172072000000005,-0.37362530932160803,0.008,0.7441748000000004,-0.3519412234327666,0.038,0.6449223999999998,-0.3524786104213074,0.062,0.4654515999999996,-0.35005726521814307,0.128,gamma
"('O1', 'Cz')",0.0,0.38962229149597993,0.38962229149597993,0.8123687999999999,0.47295883454016774,0.024,0.7547310000000002,0.4523992516583685,0.054,0.6989928000000003,0.44030840489077855,0.046,0.5750294000000004,0.4289619081987267,0.126,0.46368620000000005,0.42614560455012124,0.19,0.23401519999999984,0.4243426732278044,0.408,alpha1
"('T3', 'C4')",0.0005,-0.3894445645054291,0.3894445645054291,0.8453174000000008,-0.4166437618199062,0.014,0.7963094000000001,-0.4136993461711896,0.026,0.7663661999999998,-0.39543799496785687,0.03,0.6424315999999997,-0.39475623124850073,0.086,0.5738791999999993,-0.384056390440192,0.12,0.36588679999999985,-0.37962482680090187,0.266,alpha2
"('Fp2', 'C4')",0.0003,-0.38763458672026296,0.38763458672026296,0.8750634000000003,-0.4059917323310369,0.012,0.8451840000000006,-0.3960488741777754,0.02,0.7874241999999997,-0.3854243214304957,0.044,0.6732575999999998,-0.38291702486327445,0.052,0.5995000000000007,-0.3731559301484606,0.09,0.3890030000000003,-0.3724803373943279,0.226,beta2
"('Fz', 'C4')",0.0001,-0.38763212461474417,0.38763212461474417,0.831579600000001,-0.45617140270101963,0.02,0.7848672,-0.42598910600538387,0.042,0.6895668,-0.4398680561847315,0.07,0.5674441999999998,-0.4395747494883641,0.116,0.5034796000000005,-0.4083406878750202,0.174,0.2970961999999999,-0.4077112099458144,0.344,alpha2
"('F4', 'T5')",0.0,-0.38732621900156305,0.38732621900156305,0.7781454000000002,-0.4915020236038236,0.022,0.6918506,-0.49097373150290674,0.058,0.6010827999999996,-0.487460246409711,0.086,0.45898940000000005,-0.47541904785285033,0.172,0.2922774000000002,-0.47407852759625874,0.28,0.11144319999999992,-0.4660246317818039,0.6,alpha2
"('Fp2', 'F4')",0.0,-0.38725295210605426,0.38725295210605426,0.8083675999999993,-0.47534676724469155,0.018,0.7491128,-0.4591120653453541,0.028,0.6798483999999999,-0.4534798022037835,0.074,0.5689739999999993,-0.4438110767095518,0.118,0.48561899999999997,-0.42531713469612087,0.17,0.30034020000000006,-0.41171458113682713,0.33,theta
"('T4', 'C4')",0.0,-0.3859246847969362,0.3859246847969362,0.9045504000000006,-0.4238745077441845,0.004,0.8671332,-0.413880364237626,0.002,0.8083790000000003,-0.4076735107547298,0.008,0.6390326000000005,-0.41915450086842215,0.052,0.5218525999999997,-0.399699638835685,0.088,0.23274660000000008,-0.40557013474156156,0.292,theta
"('F7', 'C3')",0.0,-0.3846140319894766,0.3846140319894766,0.8456745999999999,-0.4714473382563946,0.018,0.7697500000000004,-0.4644839300042763,0.024,0.6854786,-0.46350181944687463,0.05,0.5706311999999998,-0.4463459127370524,0.108,0.42314219999999997,-0.44134835547259504,0.186,0.19856239999999992,-0.4318678587796967,0.428,beta1
"('F4', 'Cz')",0.0001,-0.38436945964503194,0.38436945964503194,0.8538946000000006,-0.43285744532999804,0.016,0.8013062000000001,-0.4182985717338263,0.028,0.7598664000000003,-0.4170299685147771,0.03,0.6837687999999997,-0.38530738231245903,0.072,0.5959198000000002,-0.3840513690915134,0.1,0.40466379999999985,-0.37581798535203365,0.226,beta2
"('O2', 'C3')",0.0001,0.384036957402229,0.384036957402229,0.7874556000000001,0.48112982298626944,0.038,0.7870663999999998,0.4346579821959968,0.042,0.7011690000000005,0.43503052972475514,0.074,0.6445159999999994,0.4108465626168445,0.096,0.5298507999999998,0.4076671927256513,0.17,0.3560602000000002,0.3859973904313968,0.286,alpha1
"('F4', 'O2')",0.0,-0.38388650280310327,0.38388650280310327,0.8222801999999998,-0.4403434618144249,0.022,0.7809855999999998,-0.43560256666744623,0.024,0.7216073999999995,-0.43145434664085,0.044,0.5660563999999999,-0.4263329807964357,0.074,0.47793860000000027,-0.411011384746795,0.158,0.2695128000000003,-0.40204613504488573,0.334,alpha2
"('O1', 'C4')",0.0,0.3830749823559547,0.3830749823559547,0.8314752000000001,0.4472054575902487,0.018,0.7931896000000005,0.43714963772078663,0.044,0.7289180000000006,0.42145473731778854,0.048,0.5976339999999992,0.4221677569862137,0.106,0.5065476000000002,0.40437789125693135,0.146,0.2779757999999999,0.4066512820732877,0.364,alpha1
"('F4', 'Cz')",0.0,-0.3817078578543275,0.3817078578543275,0.8079774000000001,-0.46197305679558315,0.032,0.7764536000000001,-0.42565687860385687,0.04,0.7223457999999998,-0.43278991619032076,0.05,0.6116377999999998,-0.41246416414777476,0.096,0.5402839999999999,-0.40421864678805386,0.15,0.33868599999999993,-0.4008793612261372,0.322,alpha1
"('T3', 'O2')",0.0004,-0.38106715374132283,0.38106715374132283,0.8591400000000002,-0.4075674014591158,0.006,0.8201209999999999,-0.39721507177593784,0.018,0.7647268000000003,-0.3917333342132517,0.03,0.6298754000000001,-0.3917235862364193,0.062,0.5742409999999997,-0.3754677976034941,0.1,0.34578540000000013,-0.3759932061700542,0.228,alpha2
"('Fp1', 'T3')",0.0,-0.3806738281644385,0.3806738281644385,0.8154318000000004,-0.4629826869099558,0.02,0.7767814000000001,-0.44118437030429924,0.03,0.6818456,-0.45281889727234026,0.05,0.5750871999999996,-0.4352389388916948,0.118,0.4246826,-0.4329055921805646,0.184,0.2370749999999999,-0.41657938309588144,0.394,alpha1
"('T3', 'C3')",0.0008,-0.3802125397630266,0.3802125397630266,0.8531548000000001,-0.42356627938097896,0.024,0.8336374,-0.393199235436165,0.02,0.7960399999999995,-0.3963972349728706,0.048,0.7178824000000008,-0.3888523052994582,0.074,0.6398099999999997,-0.37188577622249286,0.098,0.4725450000000003,-0.35814557126441643,0.182,beta1
"('C3', 'Cz')",0.0001,-0.37830682132192806,0.37830682132192806,0.8416058000000001,-0.48401701572303235,0.018,0.7963409999999997,-0.45327677301222735,0.036,0.7202558,-0.45715308831086876,0.042,0.6095999999999996,-0.4465850505175225,0.102,0.47622379999999975,-0.4352732255063588,0.166,0.30741999999999986,-0.40974085580056147,0.302,beta1
"('Fp2', 'Fz')",0.0,-0.37735670889938067,0.37735670889938067,0.8485354,-0.461812302805151,0.008,0.7852753999999995,-0.43713950838590093,0.018,0.7003148000000001,-0.4434565735651226,0.046,0.5903355999999998,-0.4253670105663555,0.094,0.5028978,-0.41406728984941576,0.158,0.33993900000000055,-0.4071546552188544,0.334,theta
"('F7', 'Fz')",0.0,-0.37431030557880246,0.37431030557880246,0.8305699999999997,-0.49458768161974437,0.014,0.765933,-0.4708600364342574,0.036,0.7126504,-0.4557644123459102,0.032,0.5810192,-0.4371490710547847,0.07,0.40995420000000005,-0.4496102748267484,0.186,0.1959834000000001,-0.43586838493844415,0.452,beta1
"('Fp1', 'T3')",0.0002,-0.3718770610951895,0.3718770610951895,0.8304368000000001,-0.45569019499831465,0.018,0.7617997999999999,-0.4385834264686854,0.046,0.7058746,-0.4331746316539188,0.076,0.5815321999999998,-0.42671095677288257,0.108,0.5163563999999998,-0.41458056875337274,0.196,0.34445320000000007,-0.40577077865800437,0.346,delta
"('Fz', 'O1')",0.0005,-0.37055867013348454,0.37055867013348454,0.8774855999999998,-0.39823913320101817,0.014,0.8275327999999997,-0.3813564114172168,0.02,0.7928745999999999,-0.3737377636411923,0.022,0.6840143999999996,-0.3676962787432178,0.026,0.5841047999999999,-0.3709343221636153,0.072,0.3819790000000005,-0.3655842553489761,0.21,alpha2
"('Fp2', 'F4')",0.0,-0.3705353029687279,0.3705353029687279,0.8219765999999997,-0.48245306802276217,0.012,0.7845108,-0.4497997774327028,0.018,0.7108384000000002,-0.4491476750352531,0.048,0.5554062000000004,-0.4420275714410259,0.104,0.46094679999999993,-0.41885084218643376,0.148,0.24152800000000002,-0.4174212682888061,0.384,delta
"('T3', 'P3')",0.0002,-0.37051266871464156,0.37051266871464156,0.8796101999999998,-0.41817882339048246,0.01,0.8492326000000002,-0.3866578222755519,0.014,0.8167756,-0.3837316019164429,0.02,0.7162879999999996,-0.38291786177107584,0.042,0.6122288,-0.3794671541316082,0.088,0.3915916000000002,-0.3744844437055359,0.184,beta1
"('T6', 'O1')",0.0057,-0.36940185623279137,0.36940185623279137,0.8722446000000003,-0.38428708006858237,0.016,0.8614283999999999,-0.36205761121413027,0.018,0.8288574,-0.3443966889131152,0.026,0.7781438000000009,-0.3328130096357793,0.048,0.7181046,-0.3243150318468538,0.052,0.5344068000000006,-0.3255081379360028,0.126,alpha2
"('Fp2', 'C4')",0.0005,-0.3693885107310808,0.3693885107310808,0.870466,-0.4128919482634173,0.012,0.8457525999999994,-0.39592083025696934,0.01,0.8030626,-0.3799827278730432,0.038,0.6630405999999995,-0.39249204164550006,0.056,0.5690294000000002,-0.3794361680773483,0.108,0.3802634,-0.3743908719757478,0.226,theta
"('T4', 'O2')",0.0037,-0.3679856579929466,0.3679856579929466,0.9113078000000009,-0.34287785227267786,0.008,0.8829397999999997,-0.3345422854220893,0.014,0.8489981999999997,-0.3358708312110483,0.024,0.7624838,-0.3457710561096373,0.034,0.6880282000000001,-0.3342313814454988,0.074,0.5123938000000002,-0.33731928439921016,0.13,gamma
"('F8', 'Pz')",0.0003,-0.36729600588908917,0.36729600588908917,0.8491212,-0.4057150618241476,0.012,0.7986266,-0.4113693653270511,0.028,0.7477961999999999,-0.405162928574515,0.032,0.6265763999999997,-0.39572316327754364,0.084,0.5275839999999998,-0.38764377096233155,0.132,0.32598439999999995,-0.3804626425817013,0.238,alpha2
"('Fp2', 'Cz')",0.0004,-0.3665257983002833,0.3665257983002833,0.8460062000000002,-0.41859397393618514,0.008,0.8218949999999996,-0.40911941861396306,0.022,0.7708514000000009,-0.4018373840018152,0.042,0.6662355999999998,-0.3984201962068713,0.078,0.5844965999999996,-0.37489220740720874,0.102,0.36865340000000013,-0.37716368000593636,0.244,delta
"('F4', 'C4')",0.0001,-0.3648887584330272,0.3648887584330272,0.8856496000000005,-0.4225217028470626,0.004,0.8177232000000001,-0.41491827555472854,0.008,0.7672899999999999,-0.4097172561211748,0.01,0.6693633999999997,-0.38992875667489796,0.048,0.5734735999999997,-0.38461902469366444,0.098,0.3807992000000001,-0.3827951676663371,0.246,beta2
"('Fp2', 'F3')",0.0,-0.36473538850980136,0.36473538850980136,0.8523455999999995,-0.439421012440336,0.018,0.7863628000000009,-0.43204148842090173,0.028,0.7396617999999997,-0.4116057731067782,0.05,0.6726827999999997,-0.3974164607625979,0.064,0.5644992000000003,-0.390661831499361,0.11,0.35039660000000017,-0.38515915631027936,0.276,beta2
"('Fp1', 'Fp2')",0.0087,-0.3640559419953237,0.3640559419953237,0.8083444000000003,-0.4615069457502043,0.038,0.7814686000000002,-0.41386139057039556,0.044,0.7082703999999999,-0.4291584154387168,0.074,0.6783524,-0.3799714516222206,0.088,0.6022506000000009,-0.38054816764742455,0.158,0.5352176000000002,-0.35223178584766657,0.254,alpha1
"('F7', 'T3')",0.0003,-0.3640157389904245,0.3640157389904245,0.8592944000000003,-0.4313093727617079,0.016,0.8171503999999999,-0.405982916612588,0.024,0.7707424000000003,-0.408182753745863,0.034,0.6614326000000005,-0.39848170357505197,0.07,0.5184991999999998,-0.40576169601906575,0.144,0.3251744,-0.3868282116691919,0.252,delta
"('T4', 'O2')",0.0016,-0.36368001242701187,0.36368001242701187,0.8602269999999999,-0.4165606882317739,0.036,0.8098634000000012,-0.4077072510997311,0.046,0.7896723999999998,-0.3912967091007286,0.04,0.6989007999999999,-0.38891883165903535,0.09,0.6368331999999997,-0.36696652949148006,0.108,0.4621174000000003,-0.3692070271468659,0.21,beta2
"('F8', 'Cz')",0.0013,-0.3632169370169112,0.3632169370169112,0.8988592,-0.3862796710982679,0.016,0.8259655999999995,-0.3996105952927233,0.038,0.8127564000000003,-0.3785380036841135,0.05,0.7414473999999996,-0.3682263459919088,0.062,0.6897758000000008,-0.3497221890359122,0.076,0.4974372000000001,-0.34952716670765355,0.158,beta1
"('F3', 'Fz')",0.0,-0.3629964214173285,0.3629964214173285,0.8152618000000005,-0.4902730157090728,0.024,0.7642633999999996,-0.44728962675941214,0.044,0.7063310000000007,-0.4486290377362376,0.068,0.5946277999999998,-0.42782741570497973,0.102,0.47381980000000046,-0.4210591358415163,0.196,0.27899260000000026,-0.4092358293853707,0.354,theta
"('F3', 'F4')",0.0071,-0.36278075635918117,0.36278075635918117,0.8944885999999999,-0.37723426656760245,0.016,0.8829450000000001,-0.34189150918060796,0.02,0.8346705999999998,-0.3556127895228515,0.03,0.772858400000001,-0.34043466274366124,0.036,0.7364117999999997,-0.3272348964966383,0.05,0.5706349999999994,-0.321625665223452,0.098,theta
"('F7', 'Cz')",0.0001,-0.36246988781308737,0.36246988781308737,0.8833352000000004,-0.41827419722835424,0.01,0.8500316000000004,-0.4037268786710325,0.022,0.7788114000000006,-0.4068863505652807,0.034,0.7117433999999996,-0.38528764067608023,0.06,0.6071519999999996,-0.38363090960209695,0.106,0.41221600000000014,-0.37395405472200277,0.224,beta1
"('T6', 'O2')",0.0001,-0.36217251246227533,0.36217251246227533,0.9101066000000004,-0.3930464539861275,0.0,0.8767332000000002,-0.39719428157250547,0.01,0.8135788,-0.40358381201355925,0.004,0.7094017999999994,-0.3855040611339652,0.034,0.6015593999999996,-0.38006294550924524,0.048,0.37003739999999985,-0.3830221986464624,0.238,beta1
"('T4', 'Cz')",0.0004,-0.3616762378198385,0.3616762378198385,0.9035092000000005,-0.3805504984219048,0.004,0.8711534000000001,-0.3724632520181211,0.004,0.834361,-0.3706058022458061,0.018,0.7341072000000006,-0.36739499428059863,0.054,0.6358576000000004,-0.36098253510076816,0.06,0.4511239999999997,-0.3546596463152567,0.154,beta1
"('T3', 'T5')",0.0007,-0.3605787279817322,0.3605787279817322,0.8431720000000003,-0.43799408568384457,0.02,0.822304600000001,-0.3959711855993868,0.018,0.7790182000000003,-0.39180213532450553,0.042,0.6887116000000005,-0.3836904638715135,0.07,0.6239972000000003,-0.3685328082339943,0.094,0.45264980000000016,-0.3599155009018369,0.18,beta2
"('T3', 'P3')",0.0002,-0.3594871981461244,0.3594871981461244,0.8557828000000005,-0.43237733067046413,0.006,0.8063091999999996,-0.42177314357537127,0.01,0.7650856000000008,-0.40415692976761924,0.018,0.6212052000000003,-0.3987073123165408,0.054,0.5192235999999998,-0.3940587190376603,0.13,0.2781124,-0.3939478735000095,0.292,alpha2
"('Fz', 'T4')",0.0015,-0.3593680673013478,0.3593680673013478,0.8828562000000005,-0.39223386452652675,0.01,0.8655623999999996,-0.36526015053256117,0.012,0.8281366000000003,-0.36350804582975704,0.034,0.7342424000000004,-0.369094628420399,0.06,0.6443260000000003,-0.3662917689562189,0.078,0.5254932000000003,-0.34280339293972495,0.136,beta1
"('T5', 'P3')",0.0003,-0.35757817499068933,0.35757817499068933,0.9016004000000003,-0.3926866398530753,0.002,0.8649198000000001,-0.3871255871932425,0.004,0.788783,-0.3919630029654359,0.018,0.6783287999999998,-0.3816157336197131,0.038,0.6033508000000002,-0.3722325932772802,0.066,0.3530774000000002,-0.37275903625818996,0.188,gamma
"('F3', 'O1')",0.007,-0.3564964024046601,0.3564964024046601,0.8970382000000007,-0.3502622627675245,0.008,0.8840326000000001,-0.3267583594123672,0.002,0.8690622000000001,-0.31834033498349945,0.01,0.7695299999999996,-0.3325335785828229,0.024,0.7101834,-0.32248609056279504,0.038,0.5462741999999996,-0.31502560220545095,0.092,alpha2
"('Fp1', 'F7')",0.0006,-0.356131852749899,0.356131852749899,0.9018424000000002,-0.4129667572600596,0.004,0.854148,-0.3998963909215887,0.006,0.8126501999999999,-0.3941383665781825,0.008,0.738179800000001,-0.37057098897060253,0.026,0.5767482000000004,-0.3813799777590697,0.05,0.39233979999999974,-0.3679244587980307,0.172,theta
"('F4', 'T4')",0.0042,-0.3555660158536042,0.3555660158536042,0.9352212000000003,-0.3488426348419018,0.004,0.9139543999999991,-0.33269471850662086,0.008,0.857652,-0.3399123704510103,0.016,0.7880972000000007,-0.32694941313604337,0.022,0.7114501999999999,-0.33083210356042847,0.05,0.5614843999999998,-0.32444397336798536,0.086,delta
"('T3', 'P3')",0.0,-0.35482830189921877,0.35482830189921877,0.8182530000000005,-0.4633427410985747,0.028,0.8000494000000002,-0.4338012603928266,0.026,0.7449134000000004,-0.41780347865504086,0.04,0.6372329999999999,-0.4145322282742796,0.1,0.5390976,-0.4007502770830908,0.144,0.3256904,-0.39374118479533815,0.272,beta2
"('Fp2', 'C4')",0.0004,-0.35391848607844456,0.35391848607844456,0.8577680000000003,-0.41193693995327335,0.018,0.8389846,-0.3978972064698966,0.02,0.7957456000000002,-0.3896921986255764,0.034,0.6830052000000006,-0.38809689700201144,0.062,0.5986511999999999,-0.37124140118490717,0.094,0.38531979999999993,-0.37082505189443915,0.196,delta
"('Fp2', 'Cz')",0.0001,-0.35188762626892267,0.35188762626892267,0.8489058000000002,-0.4314990547479106,0.02,0.8087825999999998,-0.4199598114413022,0.026,0.7521405999999999,-0.4150798631403185,0.066,0.6421212000000001,-0.41037219482134535,0.078,0.5600079999999998,-0.39334629365731805,0.13,0.3405060000000001,-0.39452588584320186,0.304,beta2
"('T6', 'O1')",0.0001,0.3518335177422117,0.3518335177422117,0.8245125999999998,0.45450745371641416,0.024,0.7518132000000005,0.44777459644062734,0.042,0.731375,0.4227133010324179,0.044,0.6494660000000002,0.40792750567916086,0.084,0.5523469999999994,0.39209921789938235,0.132,0.36195320000000003,0.38634444074857943,0.246,alpha1
"('O2', 'C4')",0.0,0.3515935063821042,0.3515935063821042,0.8501989999999997,0.42964951784252187,0.018,0.8142148,0.409717219426446,0.018,0.7315849999999998,0.42286499152034396,0.042,0.6112268000000002,0.414548202095321,0.086,0.5069375999999995,0.4028821523123783,0.134,0.2897502000000001,0.3970381250402772,0.316,alpha1
"('F3', 'C4')",0.0039,-0.3512806605791926,0.3512806605791926,0.9118338000000002,-0.3574112072348185,0.006,0.8984776000000005,-0.3265978078165425,0.01,0.8693234000000001,-0.3435603359501076,0.014,0.7831156,-0.33522210015458836,0.028,0.6930996000000004,-0.3381018875430252,0.058,0.5249438000000002,-0.33042619661457695,0.106,theta
"('Fp2', 'C3')",0.0014,-0.35042460639912765,0.35042460639912765,0.8505346000000005,-0.40665592770160386,0.008,0.8182965999999999,-0.3794982000569529,0.014,0.7707658,-0.39132297891227485,0.03,0.6659594,-0.3790974821717056,0.066,0.5889111999999997,-0.3621908359285585,0.114,0.4426846,-0.3542395988986806,0.202,alpha2
"('T4', 'T6')",0.0018,-0.34879733821890363,0.34879733821890363,0.9035676000000004,-0.36256948195324396,0.008,0.8884510000000001,-0.33955090330230514,0.01,0.8528636000000005,-0.3376666043723304,0.004,0.7464624,-0.35068950510532315,0.038,0.6646203999999998,-0.343187465899694,0.054,0.4613631999999994,-0.3439232071320013,0.128,gamma
"('T3', 'C3')",0.0001,-0.3487579210484032,0.3487579210484032,0.8439054000000001,-0.44578998390911373,0.024,0.7969402000000007,-0.4316101090344849,0.026,0.7535000000000003,-0.4120399294595876,0.048,0.6635094000000002,-0.4026347289855499,0.09,0.5665294000000007,-0.39079360730899393,0.112,0.36858460000000026,-0.38141589091457356,0.256,beta2
"('Fp1', 'F4')",0.0004,-0.34865467494653185,0.34865467494653185,0.9044600000000003,-0.38939187330782454,0.004,0.8838314000000003,-0.37023769024576625,0.012,0.8403102000000002,-0.37030809817530336,0.01,0.7151898000000001,-0.3702388084292745,0.034,0.6254159999999991,-0.36600281444078314,0.048,0.4249861999999998,-0.359160380502992,0.152,delta
"('Fz', 'C4')",0.0001,-0.3480253654268951,0.3480253654268951,0.8902164000000002,-0.4256369751042298,0.01,0.8541337999999997,-0.41125135925665224,0.014,0.8177262000000006,-0.3982982485512669,0.028,0.7305692000000003,-0.3876367759936125,0.016,0.6018049999999999,-0.38048893424590285,0.088,0.3835368000000001,-0.3740728174048934,0.176,beta1
"('Fp2', 'O1')",0.0023,0.3479393171413866,0.3479393171413866,0.8848779999999995,0.3951635700653312,0.012,0.8423575999999996,0.37702263262893054,0.018,0.8048191999999998,0.3685872986698536,0.028,0.7370088000000004,0.3519033547144917,0.054,0.6712709999999998,0.33997659116155104,0.048,0.48129840000000024,0.34836305574574683,0.156,gamma
"('Fp2', 'T4')",0.0004,-0.3440501122343485,0.3440501122343485,0.8610184000000003,-0.4205815690024955,0.014,0.8508374000000003,-0.3884140439120252,0.01,0.8066737999999998,-0.38686954787111644,0.028,0.6977425999999994,-0.38575665471047604,0.06,0.5898267999999999,-0.375150219456838,0.09,0.37285879999999993,-0.3790471305543125,0.238,delta
"('Fz', 'T3')",0.0086,-0.3439775680553433,0.3439775680553433,0.9215312,-0.34819648817741383,0.006,0.9081420000000001,-0.33654734328840885,0.008,0.8751239999999997,-0.33627355049447577,0.012,0.7925066000000003,-0.3244688349108398,0.028,0.7210261999999994,-0.32834984347583923,0.06,0.5961112000000001,-0.3160549260507229,0.088,beta1
"('F8', 'C4')",0.0046,-0.34358061221850156,0.34358061221850156,0.9198197999999994,-0.35094432279060916,0.008,0.869504,-0.35063059536964064,0.01,0.8568115999999997,-0.3324542915281089,0.012,0.7997141999999996,-0.3281948817295411,0.018,0.7169194000000003,-0.32746316686672766,0.036,0.547894,-0.32466762205585253,0.11,beta2
"('T6', 'P4')",0.0065,-0.3434242395776906,0.3434242395776906,0.9245416,-0.3655784810186115,0.0,0.8800091999999992,-0.36016553288307285,0.006,0.8600368000000004,-0.35240310000996083,0.02,0.8073894,-0.32769073230030155,0.02,0.7295811999999999,-0.33057896074155707,0.03,0.5560182000000001,-0.32413057145209323,0.068,beta2
"('T4', 'Cz')",0.0023,-0.343098090540733,0.343098090540733,0.8968262,-0.37459417979984444,0.01,0.8693411999999997,-0.36322809820736546,0.018,0.8301911999999997,-0.3548628943302973,0.024,0.7543871999999999,-0.352929925813698,0.032,0.6834861999999997,-0.34435554173778277,0.06,0.5255996,-0.33431269776779465,0.122,beta2
"('F8', 'C3')",0.0072,-0.34201933157651765,0.34201933157651765,0.9056566000000003,-0.3524837170142211,0.012,0.8644814000000003,-0.3537763376263355,0.022,0.8349319999999999,-0.3464300755853417,0.024,0.7609672,-0.33931624633376545,0.054,0.7312853999999996,-0.31513285086779985,0.044,0.5757887999999994,-0.316924508522735,0.12,alpha1
"('F3', 'Fz')",0.0042,-0.34192718565403785,0.34192718565403785,0.8973142000000006,-0.3663986980863105,0.012,0.8763287999999997,-0.34865017351040606,0.012,0.8527777999999996,-0.34130402859361303,0.016,0.7777082,-0.3305047741912784,0.032,0.7194719999999993,-0.3275152575029197,0.046,0.5696064,-0.3271172183395395,0.128,delta
"('F8', 'C3')",0.0117,-0.341916845686908,0.341916845686908,0.8993406000000003,-0.3382247095211954,0.014,0.8742583999999993,-0.32587841710510107,0.02,0.8447058000000003,-0.33343173568208084,0.02,0.7764876000000004,-0.32415391327887844,0.044,0.7377042,-0.3101546818918844,0.04,0.6257518000000003,-0.3005861674658741,0.084,alpha2
"('Fp1', 'T3')",0.0027,-0.34053546832972226,0.34053546832972226,0.9000550000000005,-0.3903195962633467,0.01,0.8755802000000001,-0.36114787726223274,0.012,0.8406236,-0.3628565624476265,0.022,0.7487507999999999,-0.35775990529530466,0.058,0.6740955999999998,-0.35182912872413036,0.078,0.5088004,-0.3437607846510275,0.126,beta1
"('T6', 'C4')",0.0151,-0.3372552859587043,0.3372552859587043,0.9192956000000009,-0.32774121033781517,0.002,0.8766964000000004,-0.33853112715503336,0.014,0.8593888000000002,-0.3359764376678153,0.018,0.823286599999999,-0.3063618123318438,0.012,0.754054000000001,-0.31329357817635334,0.056,0.6290176000000004,-0.305374308266064,0.08,gamma
"('T4', 'T6')",0.002,-0.33678830463929077,0.33678830463929077,0.9164209999999996,-0.35153063762522463,0.004,0.8960222000000001,-0.33695097360948,0.006,0.8601652,-0.3355560316340589,0.006,0.7656598000000001,-0.3488522383232274,0.038,0.6689752000000001,-0.3420725577950459,0.05,0.46728639999999977,-0.3436042412260831,0.126,beta2
"('F7', 'T6')",0.0001,-0.33629320824876996,0.33629320824876996,0.8687084000000002,-0.411245166574906,0.008,0.8354901999999996,-0.4133146629174224,0.02,0.7790312000000004,-0.4156563044616656,0.036,0.6610223999999999,-0.40437254488542435,0.1,0.5577999999999997,-0.3959073651042986,0.094,0.3538241999999998,-0.39166121337193466,0.278,beta1
"('O1', 'Cz')",0.0042,0.33586987576883265,0.33586987576883265,0.9056788000000002,0.36945071352760633,0.008,0.8705789999999997,0.34802198232874293,0.014,0.8172988,0.35122442035827905,0.034,0.790009399999999,0.332771766030249,0.034,0.7036394000000002,0.32992518885535427,0.058,0.5175543999999994,0.3345746107607308,0.11,beta2
"('Fp1', 'Fp2')",0.0038,-0.3357489855779734,0.3357489855779734,0.9003453999999996,-0.3800798775416792,0.006,0.8812749999999998,-0.3604398531154909,0.014,0.842023,-0.354766381309943,0.018,0.8033896000000009,-0.33304105691132835,0.016,0.7140998000000001,-0.34008703394041345,0.06,0.5655992,-0.3307600850729888,0.12,beta1
"('Fp2', 'T4')",0.0016,-0.3356513201565191,0.3356513201565191,0.8903544,-0.3861669165439365,0.01,0.8766591999999995,-0.34964634148448026,0.008,0.8485,-0.34797724567328286,0.01,0.7519170000000002,-0.34980154448344125,0.032,0.6674831999999988,-0.3448623337029185,0.04,0.46834380000000014,-0.3450564678038026,0.142,alpha1
"('P3', 'P4')",0.0058,0.335634479639642,0.335634479639642,0.9006655999999997,0.3824642253091147,0.01,0.8402438,0.3892894651158669,0.028,0.8269180000000002,0.36836340820545554,0.022,0.7444509999999998,0.35754820579816826,0.046,0.6905459999999998,0.3443817620281029,0.054,0.5158963999999999,0.33855766466057674,0.136,alpha1
"('T3', 'C3')",0.0098,-0.33550649462264404,0.33550649462264404,0.8650416,-0.4030527512343087,0.004,0.8372970000000001,-0.3811851878680459,0.014,0.7886799999999999,-0.3684005191039651,0.024,0.7354631999999999,-0.35702605438727686,0.042,0.6617725999999999,-0.3499543454184133,0.08,0.5577259999999998,-0.3280616533273937,0.128,alpha1
"('Fp2', 'Fz')",0.0017,-0.33426206637161415,0.33426206637161415,0.9077781999999995,-0.39278288009069867,0.002,0.8730266000000009,-0.3784690670233532,0.012,0.8085084,-0.3778345604759918,0.018,0.7283107999999996,-0.37022517092205964,0.024,0.6653194000000001,-0.3517983129961402,0.066,0.4831450000000005,-0.35106312473789425,0.182,delta
"('Fp1', 'Fp2')",0.0074,-0.333978704021893,0.333978704021893,0.9111948000000005,-0.3542420370990112,0.006,0.8913649999999997,-0.32553691099900217,0.01,0.8498409999999996,-0.3250915541928867,0.016,0.8146167999999999,-0.31634807597653036,0.012,0.730198,-0.32154924094023957,0.056,0.5934058000000006,-0.31049173541822134,0.082,gamma
"('O1', 'O2')",0.0022,0.3337721262442469,0.3337721262442469,0.8979828000000007,0.3901574290024795,0.014,0.8325826000000002,0.3895852793765775,0.022,0.8257265999999993,0.3711926224962014,0.028,0.7538675999999999,0.358045994197237,0.028,0.7197415999999996,0.33102259459815775,0.052,0.4872150000000009,0.3485040061680761,0.154,beta1
"('Fz', 'F4')",0.0001,-0.33316864286604975,0.33316864286604975,0.8527595999999998,-0.44143968244290627,0.022,0.7930561999999995,-0.4116267145988306,0.018,0.7569385999999999,-0.4155809957088495,0.04,0.6458329999999994,-0.4007039694122271,0.08,0.5560855999999995,-0.39089226698761587,0.126,0.3445886000000002,-0.3895237432981841,0.294,theta
"('F4', 'T6')",0.0072,-0.33283956387844155,0.33283956387844155,0.8980759999999989,-0.332925896040394,0.004,0.8808469999999999,-0.3335976729537966,0.014,0.8327770000000008,-0.3340594336215383,0.018,0.7592646000000006,-0.33155799280193576,0.028,0.7072288,-0.3183110512001335,0.04,0.5549764,-0.31591109213633184,0.1,alpha2
"('Fp1', 'Cz')",0.0004,-0.33108136162475643,0.33108136162475643,0.8729652000000004,-0.39550997529556997,0.01,0.8433594,-0.4002168132192776,0.01,0.7917123999999993,-0.3894337602606747,0.026,0.7083162000000001,-0.3766820256528644,0.056,0.6076633999999994,-0.36757770448158206,0.102,0.43097639999999976,-0.36253138197805707,0.21,delta
"('O1', 'Pz')",0.0131,0.3302021859693173,0.3302021859693173,0.9003739999999997,0.35421228910832087,0.006,0.8541346000000002,0.3615961630084775,0.018,0.8356884000000008,0.34270262851750044,0.022,0.7597066,0.3370960322160392,0.054,0.7298887999999999,0.3211256829388842,0.052,0.6055324000000004,0.30962534664763425,0.092,alpha1
"('F3', 'T4')",0.0112,-0.3293954814492386,0.3293954814492386,0.8971760000000005,-0.353533413756895,0.008,0.8668146,-0.3394805638558553,0.016,0.8198331999999997,-0.34186974917996815,0.024,0.7787800000000007,-0.32878096725826106,0.04,0.718052,-0.3211344190752014,0.056,0.5620553999999996,-0.3172594164021822,0.126,alpha2
"('F3', 'Pz')",0.0025,-0.32828355920246566,0.32828355920246566,0.911658,-0.36236460828570155,0.006,0.8698913999999998,-0.3742694868849571,0.02,0.8496942000000003,-0.36341465878255846,0.022,0.7592972000000003,-0.3523977727317767,0.038,0.7148226000000003,-0.3444712603660294,0.058,0.5328004,-0.33858899659100167,0.138,beta1
"('T6', 'O2')",0.0121,-0.32822456026782515,0.32822456026782515,0.9192906000000004,-0.35303422907007115,0.004,0.8552231999999995,-0.3746904362127695,0.012,0.8265325999999995,-0.3561432230984833,0.016,0.7829204000000003,-0.3342019867700917,0.032,0.7043604000000002,-0.32811603711986453,0.052,0.5842118000000002,-0.3240279631329342,0.126,gamma
"('F8', 'P3')",0.0033,-0.32661328116384597,0.32661328116384597,0.8921714000000001,-0.3441153252295751,0.012,0.8678520000000003,-0.360572450685117,0.026,0.8430189999999995,-0.34086051847855237,0.022,0.7375310000000002,-0.33850362776700016,0.034,0.6984734,-0.32778685872525126,0.054,0.5271970000000004,-0.32598418625459635,0.118,alpha2
"('Fp2', 'C4')",0.0003,-0.32637705354195035,0.32637705354195035,0.8568736000000001,-0.4156727862274398,0.016,0.8234486000000002,-0.40045069817432793,0.014,0.7902995999999993,-0.3822879347606733,0.02,0.6619113999999997,-0.3922371205051346,0.078,0.6005399999999996,-0.3720553284847084,0.106,0.39625460000000023,-0.3653723301467931,0.24,alpha1
"('F7', 'C4')",0.0023,0.3262546536218799,0.3262546536218799,0.8887875999999996,0.3761599305343888,0.014,0.8581036000000003,0.37186703181091163,0.012,0.8128058000000001,0.3648544346310218,0.018,0.7209346000000002,0.3654274615356806,0.058,0.6941672000000001,0.3382847385119826,0.062,0.49788420000000044,0.3384339417753436,0.156,gamma
"('Fp1', 'C4')",0.0092,-0.32611660798119024,0.32611660798119024,0.9290131999999999,-0.32030158896189376,0.004,0.9129700000000006,-0.30391746918244694,0.002,0.8607850000000006,-0.3140687846282572,0.02,0.7920182000000002,-0.3231565543496786,0.028,0.7030364,-0.3214725993160071,0.052,0.5800671999999998,-0.31311563639947243,0.09,alpha2
"('T5', 'P3')",0.0108,-0.3251752140384136,0.3251752140384136,0.9360725999999998,-0.3369473062493235,0.0,0.9296430000000001,-0.3194361694694141,0.006,0.8927023999999997,-0.3279368812917381,0.004,0.8321824000000005,-0.3131378703201046,0.014,0.7954039999999991,-0.3090776786182919,0.028,0.5952695999999992,-0.3111961711123,0.046,beta2
"('Fp2', 'C4')",0.0101,-0.32444293130702084,0.32444293130702084,0.9029655999999999,-0.3426700694403358,0.006,0.8898570000000007,-0.3224494831898073,0.006,0.8298119999999999,-0.33385846985470574,0.014,0.7663402000000002,-0.3244094693870062,0.044,0.6928455999999995,-0.3227796297753736,0.056,0.5939649999999999,-0.3070731711594312,0.088,alpha2
"('F3', 'C3')",0.0048,-0.32440707957133535,0.32440707957133535,0.9105311999999994,-0.3625793380396014,0.004,0.8841484000000003,-0.34881160164441727,0.008,0.8563287999999996,-0.34261435623161146,0.004,0.775997,-0.33849536504035893,0.01,0.7156009999999996,-0.3274857362871659,0.038,0.5246799999999996,-0.3287214153830689,0.108,alpha1
"('T6', 'Pz')",0.0067,0.32429154605965776,0.32429154605965776,0.9180166000000007,0.35527237801375544,0.006,0.8785525999999999,0.3517926835731121,0.01,0.8695236000000002,0.3430905918048599,0.014,0.7943485999999995,0.3330861426337776,0.028,0.7459640000000002,0.31751066940712663,0.032,0.6045921999999998,0.312313731347717,0.078,beta1
"('Fp1', 'C4')",0.0002,-0.32397951502724043,0.32397951502724043,0.884474,-0.3817150469974548,0.004,0.8502420000000004,-0.3830633494342423,0.006,0.8246819999999992,-0.3708388059991799,0.01,0.6882661999999996,-0.37289446321811526,0.044,0.6032686000000007,-0.3684658346681666,0.068,0.3888479999999999,-0.3656224000227279,0.214,alpha1
"('T4', 'T5')",0.0065,-0.3233739771798948,0.3233739771798948,0.9155659999999997,-0.33125335457170163,0.002,0.8868094000000001,-0.3247642706891397,0.01,0.8569048000000005,-0.32381460456875066,0.012,0.8031999999999999,-0.3155491664694263,0.032,0.7158204000000002,-0.3257921676539361,0.042,0.5589483999999998,-0.31328794031248886,0.1,alpha2
"('F3', 'T3')",0.0014,-0.32333059657342667,0.32333059657342667,0.7914404000000003,-0.4870229838428302,0.028,0.7447011999999998,-0.4469874899818144,0.06,0.7025701999999997,-0.4294059047440524,0.074,0.6514947999999995,-0.40296297574643436,0.13,0.5750921999999996,-0.4042056108456053,0.166,0.4694408000000007,-0.3708909244055658,0.218,delta
"('O1', 'C4')",0.0035,0.3220511201744607,0.3220511201744607,0.8925873999999999,0.37767577847487965,0.016,0.8738292000000004,0.34870587441665624,0.024,0.8234191999999996,0.36719901789253506,0.032,0.7567006000000004,0.34834259521193894,0.036,0.6981384000000005,0.3357923426019267,0.07,0.5094494,0.33654496212459956,0.126,beta2
"('T4', 'C3')",0.0155,-0.321819222131744,0.321819222131744,0.9224294000000005,-0.3142456121801773,0.008,0.9124089999999999,-0.28794287211775976,0.006,0.8784318000000001,-0.30240135414095365,0.012,0.7885176000000002,-0.310685727034256,0.014,0.7636692000000003,-0.29833589116772186,0.038,0.6141497999999995,-0.3000502681489453,0.064,alpha2
"('C3', 'Pz')",0.0039,-0.3206686158780647,0.3206686158780647,0.9194988000000005,-0.366247709552342,0.006,0.9079696000000002,-0.3554902133281118,0.006,0.8744114,-0.35508147304706594,0.02,0.8194209999999998,-0.3343565818776076,0.016,0.7339799999999996,-0.33582343583108376,0.026,0.5698993999999998,-0.32472972961945407,0.05,beta1
"('O2', 'P4')",0.0074,-0.3202167387401148,0.3202167387401148,0.9365955999999999,-0.33952135148741264,0.006,0.8858439999999999,-0.35885333714068496,0.012,0.8682776000000005,-0.3548573404851671,0.004,0.8205284000000007,-0.3329116893810116,0.014,0.7260247999999997,-0.337003883985024,0.018,0.5580403999999999,-0.3243066478598745,0.052,gamma
"('T3', 'P4')",0.0019,-0.31822082651902456,0.31822082651902456,0.8834617999999997,-0.3590424753000857,0.012,0.8541991999999998,-0.35843424777060934,0.012,0.8183131999999994,-0.3550926993781469,0.022,0.7364134000000003,-0.35550655958930155,0.04,0.6617874000000004,-0.34498412261097505,0.072,0.4712960000000001,-0.3408902463315527,0.138,alpha2
"('F8', 'C4')",0.0324,-0.31725926226751544,0.31725926226751544,0.8950448000000001,-0.34408060155243797,0.012,0.8981289999999997,-0.3224160334961836,0.014,0.8637954000000001,-0.3138413465802579,0.006,0.8175466000000005,-0.3105760551892518,0.022,0.7591714000000004,-0.29835282562873844,0.038,0.6704289999999997,-0.28467046522722494,0.056,alpha2
"('F8', 'T4')",0.0148,-0.3159927659192185,0.3159927659192185,0.9340183999999999,-0.3167821206389102,0.004,0.909077,-0.3150900064976254,0.002,0.8750109999999993,-0.32433443992744715,0.008,0.7893466000000003,-0.3248457835922401,0.018,0.7382032000000001,-0.3157581065598862,0.032,0.5762862000000003,-0.314714387422879,0.098,alpha1
"('Fp1', 'T5')",0.0005,-0.31569393291540376,0.31569393291540376,0.8174134000000001,-0.434103247937391,0.016,0.7769194000000001,-0.420577745392984,0.038,0.7523998000000001,-0.39935378737516464,0.052,0.6830149999999999,-0.387464016628947,0.062,0.5692897999999995,-0.3834062827693294,0.108,0.3645500000000002,-0.37835865620956616,0.252,alpha2
"('F3', 'C4')",0.0058,-0.3139764994062187,0.3139764994062187,0.9103365999999997,-0.355128943498305,0.006,0.8746775999999998,-0.3408884265882311,0.014,0.8651630000000003,-0.33723123409508166,0.006,0.7715988000000007,-0.33732075152273666,0.014,0.7252739999999996,-0.3272997120199775,0.038,0.536783,-0.3291091645267619,0.108,alpha1
"('F3', 'Cz')",0.0054,-0.313397825411138,0.313397825411138,0.9151836000000002,-0.3561982902552819,0.006,0.9015324000000001,-0.34927253766253624,0.004,0.8719583999999998,-0.34650264240873757,0.012,0.8121357999999995,-0.33574388333335725,0.016,0.7247768000000001,-0.339215468591554,0.024,0.5600322000000003,-0.3280132797210183,0.092,delta
"('F3', 'Pz')",0.0042,-0.3131642445052599,0.3131642445052599,0.9051179999999996,-0.3496993394820924,0.006,0.8776537999999998,-0.33488949206676816,0.008,0.8373475999999997,-0.34258030181204197,0.018,0.7225888000000004,-0.35246302449977635,0.052,0.6640684000000001,-0.3331507966476701,0.066,0.5167307999999999,-0.32917289940324934,0.106,alpha2
"('Fp2', 'T4')",0.0176,-0.3116142573686292,0.3116142573686292,0.9131047999999999,-0.32502380690520083,0.002,0.9092063999999996,-0.32004333454371087,0.008,0.8800541999999998,-0.30814483526720904,0.018,0.8136815999999996,-0.3110315195464631,0.018,0.7695626000000004,-0.31083945977179406,0.026,0.6894621999999995,-0.29503158955168074,0.064,beta1
"('F7', 'F4')",0.0258,-0.31150840241216154,0.31150840241216154,0.9385856,-0.3190436111906561,0.002,0.9131857999999996,-0.3017056526638147,0.012,0.8791520000000005,-0.3070584487672639,0.016,0.8803432000000005,-0.2839245021664694,0.016,0.7874144000000004,-0.30244014993495183,0.034,0.694253599999999,-0.28504772200336426,0.046,beta1
"('O1', 'C3')",0.0095,0.3109996493913416,0.3109996493913416,0.8888315999999995,0.36352022025747766,0.012,0.8812309999999995,0.3433780150948225,0.008,0.8430079999999995,0.3480219874912575,0.014,0.7855048000000007,0.33285069519939287,0.028,0.7154308000000003,0.32461019383729467,0.042,0.5722226000000002,0.3183283378878862,0.086,alpha1
"('F7', 'F3')",0.0014,-0.3105039429304843,0.3105039429304843,0.8836414000000001,-0.39182957549551684,0.01,0.8725682000000009,-0.36557800593730627,0.004,0.8458840000000002,-0.35649364090902896,0.008,0.7726997999999996,-0.34442864296969455,0.036,0.6600576000000004,-0.35502824894340596,0.06,0.48140379999999977,-0.3423996356324262,0.148,delta
"('Fp1', 'Cz')",0.0025,-0.31016716715471526,0.31016716715471526,0.9247867999999998,-0.3530524477746843,0.002,0.9007335999999998,-0.3435303021157129,0.0,0.8647796,-0.3424922548288515,0.006,0.7686278000000003,-0.34788119116526744,0.042,0.6812738,-0.3401816312095186,0.048,0.5128563999999998,-0.33439891962037627,0.136,theta
"('F3', 'C4')",0.001,-0.30980328915759103,0.30980328915759103,0.9340172000000004,-0.36271249479702017,0.002,0.8851226000000004,-0.37153079043740306,0.006,0.8477857999999987,-0.36721522061188117,0.018,0.7755332000000003,-0.35188334436944846,0.028,0.6684477999999993,-0.34990320056847046,0.078,0.5247928000000003,-0.3387900643471597,0.14,beta1
"('O2', 'C3')",0.0057,0.30938152704339933,0.30938152704339933,0.8847998000000004,0.3948776779961054,0.02,0.8427951999999999,0.37263802536883944,0.042,0.8177666000000003,0.36403061521226676,0.048,0.7601194000000003,0.36442082793336167,0.054,0.7095469999999999,0.33792171549853495,0.084,0.5398417999999998,0.3389461123270864,0.168,beta1
"('T5', 'O2')",0.0407,0.3092316330810144,0.3092316330810144,0.9321647999999999,0.3030935737974624,0.006,0.9100578000000001,0.2993381833463369,0.006,0.8961906,0.2928540840705913,0.004,0.8365218,0.29562348516007186,0.014,0.7946577999999997,0.2862936131897379,0.018,0.6849139999999998,0.282121444797598,0.054,beta2
"('F8', 'P3')",0.0027,0.3078813792249115,0.3078813792249115,0.8944236000000005,0.37648471708558495,0.008,0.8662447999999999,0.36404709957247605,0.014,0.8445045999999994,0.3597105262593823,0.014,0.7761785999999999,0.33859853857667144,0.02,0.6966580000000001,0.3315484132736112,0.054,0.4989263999999999,0.3348172556964883,0.116,gamma
"('F3', 'C3')",0.0261,-0.30770365638514047,0.30770365638514047,0.9529331999999999,-0.33098628317992923,0.004,0.9392012000000001,-0.30079157013001745,0.002,0.9156823999999998,-0.31322190206830763,0.004,0.8663955999999992,-0.3117771432227674,0.012,0.8103444000000011,-0.3043450927730774,0.016,0.6718519999999998,-0.29735241211247126,0.024,theta
"('Fz', 'T3')",0.0038,-0.3075506099434769,0.3075506099434769,0.9075521999999999,-0.3832288778434212,0.002,0.8768267999999998,-0.35366624667122826,0.012,0.8431705999999999,-0.348650158978787,0.018,0.7719896000000003,-0.35007506042115805,0.03,0.6724060000000001,-0.34992517098704107,0.048,0.5360887999999998,-0.33109582402192284,0.1,delta
"('O2', 'Cz')",0.0038,0.307116486270398,0.307116486270398,0.8730254000000001,0.38617441222228605,0.012,0.8524122000000005,0.3775407731319679,0.016,0.8077580000000002,0.3750245366476546,0.042,0.7580420000000001,0.35632751898084297,0.04,0.7154907999999996,0.33574391973843587,0.074,0.5180847999999997,0.34802952041221386,0.172,beta1
"('O2', 'P4')",0.0084,-0.30644100075572583,0.30644100075572583,0.9513235999999999,-0.32958169996775233,0.0,0.9117927999999996,-0.3328133328128105,0.002,0.884539000000001,-0.33547347741326655,0.014,0.8059897999999995,-0.3300734405957134,0.018,0.7492252000000001,-0.32341440635826324,0.018,0.5710284000000002,-0.3206096692087226,0.054,beta2
"('F8', 'T4')",0.01,-0.30539006580695033,0.30539006580695033,0.9350428000000001,-0.30346258480234,0.01,0.9124479999999993,-0.31683597768005717,0.008,0.8828105999999997,-0.307172606209367,0.014,0.8141542000000007,-0.3157966924429178,0.018,0.7571512000000002,-0.305999347585388,0.03,0.6259246000000003,-0.30105688474526326,0.05,gamma
"('Fz', 'Pz')",0.0218,-0.30449392913868945,0.30449392913868945,0.9480907999999997,-0.2875781800745549,0.002,0.9243863999999996,-0.30161079604721563,0.004,0.920685,-0.29155168427094,0.002,0.8731806000000003,-0.2980543885467,0.012,0.8204699999999998,-0.29327894192613085,0.016,0.6839067999999998,-0.2893745380000861,0.038,beta1
"('Fp2', 'F8')",0.0007,-0.30446570268627443,0.30446570268627443,0.8157332000000003,-0.44908454200555004,0.02,0.7903132000000003,-0.4196852761830617,0.03,0.775284,-0.39617055399776147,0.024,0.6858643999999995,-0.3789025755048627,0.094,0.6280784000000007,-0.3717904849902622,0.104,0.42823140000000015,-0.36915426287552766,0.206,alpha1
"('F7', 'C3')",0.0233,-0.30415152249447663,0.30415152249447663,0.8985044000000006,-0.35516186455651483,0.016,0.8674172000000003,-0.3500707906849781,0.02,0.8512340000000005,-0.32296747500137185,0.016,0.7887927999999998,-0.3256193696820138,0.052,0.7350480000000001,-0.31617250855672446,0.068,0.6268548000000004,-0.3083604844118713,0.104,delta
"('F3', 'T3')",0.0112,-0.30268394659079734,0.30268394659079734,0.9125845999999997,-0.36603775495882207,0.004,0.8928902000000006,-0.34772448371385456,0.004,0.8382930000000001,-0.3485374047403371,0.004,0.7871756000000008,-0.33643987014003196,0.01,0.7106311999999994,-0.33838286175420534,0.042,0.598806,-0.3175142700033199,0.09,theta
"('T5', 'T6')",0.0016,-0.30252088262106736,0.30252088262106736,0.8527370000000004,-0.40733010992004826,0.018,0.8393574000000004,-0.3753524712939132,0.01,0.7863030000000009,-0.37428923911123535,0.032,0.7382400000000007,-0.3590750548668874,0.05,0.6416256000000004,-0.3513945313014881,0.072,0.4665344000000006,-0.3491496319364035,0.186,alpha2
"('F7', 'T4')",0.0082,-0.302325252609478,0.302325252609478,0.9163342000000004,-0.3359315193658001,0.006,0.8955442000000001,-0.31452687607171953,0.004,0.8612876,-0.31298484166279444,0.014,0.8158856000000001,-0.30419649688894346,0.012,0.7050237999999994,-0.31792817659592526,0.034,0.5631588000000004,-0.3146249653807283,0.088,alpha2
"('O1', 'P3')",0.0018,-0.30207347440768795,0.30207347440768795,0.9309014000000004,-0.3574547913004094,0.002,0.8630804000000003,-0.3700484090414568,0.002,0.8491024000000006,-0.36326145553113853,0.002,0.7657424000000002,-0.3414473601665532,0.01,0.6619536000000001,-0.34968828221343456,0.04,0.4816991999999998,-0.3370007108463031,0.088,gamma
"('T6', 'Cz')",0.0024,0.3020203834310645,0.3020203834310645,0.8706092,0.40851426637780414,0.008,0.8331484000000005,0.38049536040893567,0.016,0.7692093999999996,0.39061025109702796,0.028,0.7312224000000003,0.3658702868767005,0.036,0.6317320000000002,0.36066874593662085,0.084,0.5206553999999999,0.33868311944497964,0.148,alpha1
"('T5', 'O1')",0.012,-0.30110088650988653,0.30110088650988653,0.8828974000000003,-0.3997803587003934,0.01,0.8699944000000001,-0.3610822247993353,0.018,0.8375936000000003,-0.35230442795435557,0.028,0.8029438000000001,-0.3396366639212825,0.034,0.7603176000000001,-0.3247711385425816,0.048,0.5980794000000003,-0.32569369746097687,0.134,beta1
"('Fp1', 'F8')",0.0222,-0.30050171075439536,0.30050171075439536,0.9103659999999997,-0.33375702285004705,0.008,0.898668600000001,-0.32077888100926594,0.006,0.8583009999999994,-0.31350794959942346,0.018,0.8163422000000006,-0.3033545008127695,0.024,0.7626470000000003,-0.3017616108516997,0.038,0.6392237999999996,-0.29799610160700635,0.09,alpha1
"('T4', 'Pz')",0.0051,-0.299609634050987,0.299609634050987,0.8653420000000007,-0.3870938994125442,0.016,0.8341695999999998,-0.37159695664631415,0.016,0.7951150000000005,-0.36547243223845166,0.026,0.7064248000000002,-0.37242664261623554,0.068,0.6761386000000007,-0.3347250121158491,0.066,0.5398067999999997,-0.328207287866522,0.126,alpha2
"('T5', 'T6')",0.0112,0.298969939416594,0.298969939416594,0.8902042,0.3675229897861074,0.016,0.8725554,0.3467366527875246,0.014,0.8477162000000001,0.33188407891599164,0.024,0.8112753999999999,0.32277043129126615,0.018,0.7223529999999998,0.3206907410248828,0.072,0.6070242000000001,0.30842649760236124,0.072,alpha1
"('O1', 'P4')",0.0015,0.2985875842081504,0.2985875842081504,0.8427089999999995,0.42722869497374316,0.022,0.7891935999999995,0.41821876535814806,0.04,0.776678,0.38565715206756,0.048,0.6975731999999997,0.3764289097249864,0.08,0.6392378000000006,0.36041699302119107,0.088,0.4700127999999994,0.3580360309310495,0.182,alpha1
"('F3', 'Cz')",0.0112,-0.29803768164287764,0.29803768164287764,0.9155753999999996,-0.33749791447550853,0.014,0.9060156000000001,-0.3131944675760303,0.006,0.8880634000000003,-0.32513542441641907,0.012,0.7913721999999991,-0.329544010785386,0.03,0.7482060000000009,-0.31923718735985646,0.038,0.6066714000000002,-0.31217036524007097,0.084,theta
"('F3', 'F8')",0.0103,-0.297514925684767,0.297514925684767,0.9376004000000001,-0.3298162987656268,0.006,0.9032594,-0.32918372320802625,0.012,0.8603736000000004,-0.3238796129173105,0.014,0.8414887999999997,-0.31346901256603893,0.014,0.7544337999999995,-0.31458204344329216,0.04,0.6181841999999995,-0.3080004834550729,0.078,beta1
"('F4', 'C4')",0.0014,-0.29685471116945106,0.29685471116945106,0.8785732000000003,-0.3890222550915028,0.014,0.8592506000000002,-0.3619916529163303,0.016,0.8193583999999997,-0.3607023841966004,0.024,0.7108789999999996,-0.3695880177411,0.04,0.6728089999999998,-0.3491672426232711,0.046,0.451414,-0.34965269409410166,0.18,alpha1
"('F4', 'C3')",0.0103,-0.2962789872318543,0.2962789872318543,0.9112144000000003,-0.343978237014966,0.004,0.9037119999999997,-0.3216217774202184,0.008,0.8741145999999999,-0.3306826063538641,0.012,0.8137732000000004,-0.32338855730761396,0.016,0.7621870000000001,-0.318892605554911,0.018,0.6079359999999997,-0.3046881337734385,0.072,theta
"('Fp1', 'C4')",0.0042,-0.2954498149933128,0.2954498149933128,0.8906874,-0.3636692564973533,0.006,0.8659970000000003,-0.34267344584843495,0.014,0.8373955999999997,-0.34202267684200793,0.012,0.7704243999999996,-0.3360072122854339,0.042,0.6792059999999999,-0.34037356835370225,0.078,0.5569730000000002,-0.32725268496581367,0.138,delta
"('T4', 'Pz')",0.0329,-0.29440076087227496,0.29440076087227496,0.9230619999999998,-0.328313443910386,0.012,0.8982252000000004,-0.3188050645483339,0.022,0.8752942000000001,-0.3124035732417917,0.012,0.8174522000000006,-0.3110845850880558,0.032,0.7930502000000001,-0.28861734275348816,0.04,0.6816338000000004,-0.2889052124920775,0.066,beta2
"('F3', 'Pz')",0.0061,-0.29327426199617246,0.29327426199617246,0.9290480000000001,-0.32893276733219806,0.004,0.8991350000000004,-0.32192374475272173,0.012,0.8906808000000003,-0.317156258759121,0.008,0.8084738,-0.3209515973656154,0.014,0.7396209999999993,-0.31947486526321905,0.026,0.5905370000000001,-0.3187854406023515,0.082,delta
"('Fp2', 'T3')",0.0228,-0.2927971390075407,0.2927971390075407,0.9054604000000003,-0.3439829337371861,0.01,0.8843564000000005,-0.33125664809106575,0.022,0.8446444000000004,-0.33267889169465814,0.026,0.8086880000000002,-0.3138809258345376,0.032,0.7537933999999998,-0.3097072476316678,0.052,0.6635136000000004,-0.2936131275258485,0.066,alpha1
"('O2', 'P4')",0.0126,-0.2919128738827751,0.2919128738827751,0.9575967999999998,-0.3239309278253422,0.0,0.9112871999999999,-0.3172775149804211,0.006,0.9039130000000003,-0.3215572073426077,0.014,0.8396537999999997,-0.3248596759568806,0.018,0.7776751999999995,-0.319949292904828,0.026,0.6145440000000003,-0.31566219821035113,0.064,beta1
"('T4', 'C4')",0.0181,-0.2911864481368741,0.2911864481368741,0.9614355999999997,-0.3195023030104744,0.0,0.9346587999999999,-0.30255267886087245,0.004,0.9270807999999997,-0.29672215673575864,0.002,0.8433934000000003,-0.3077619382421419,0.014,0.8070264,-0.2987338439083952,0.01,0.6407504000000002,-0.30197855452673494,0.048,delta
"('O2', 'Pz')",0.0045,0.2908019024822707,0.2908019024822707,0.9012694000000002,0.37855692780769734,0.006,0.8577265999999998,0.3624312522196071,0.028,0.8355649999999996,0.35105873724051023,0.028,0.7636202000000003,0.34341370860070797,0.044,0.7094861999999997,0.3315902379905225,0.056,0.5459168000000002,0.32799964581036356,0.124,beta2
"('Fz', 'C3')",0.0101,-0.2907294045029227,0.2907294045029227,0.9310582000000003,-0.349177394892948,0.002,0.9197334000000005,-0.31711537588199457,0.01,0.9007401999999999,-0.31479409974562816,0.002,0.8238502000000002,-0.32650285209146523,0.012,0.7612855999999999,-0.32500051776998806,0.026,0.6205567999999997,-0.3099882974103093,0.06,delta
"('Fp2', 'F8')",0.0137,-0.29048054926327527,0.29048054926327527,0.9224822000000009,-0.32629507592535373,0.0,0.9059006000000004,-0.313333263904142,0.002,0.8874561999999996,-0.29943353969356035,0.006,0.8751976000000004,-0.2890183109395655,0.008,0.7684506000000003,-0.3047103685977566,0.036,0.6391865999999994,-0.289999235662325,0.056,gamma
"('F3', 'T3')",0.0098,-0.2890438951911882,0.2890438951911882,0.8365004,-0.41950054181339413,0.018,0.8351073999999999,-0.3774779307313497,0.028,0.7787479999999997,-0.3781215025545151,0.044,0.7245165999999995,-0.3613603403508468,0.066,0.6756441999999999,-0.3464665010912562,0.096,0.5679356000000004,-0.3297581329463176,0.126,alpha1
"('T3', 'P3')",0.0174,-0.2875023799518323,0.2875023799518323,0.9523370000000001,-0.3256611442906968,0.002,0.9414434000000002,-0.30464658542333806,0.002,0.9195240000000002,-0.287133440839459,0.002,0.8573181999999996,-0.2994754244091804,0.002,0.7893329999999997,-0.3025749137098337,0.02,0.6448434000000005,-0.2972821616887038,0.018,delta
"('Fp2', 'T3')",0.016,-0.2874157558158987,0.2874157558158987,0.9138088000000004,-0.34643219717909324,0.002,0.8787489999999997,-0.3182296956663072,0.014,0.8508886000000008,-0.3169732584511581,0.01,0.7853499999999995,-0.31382826260684843,0.034,0.7551745999999996,-0.3033023464088394,0.04,0.6246221999999999,-0.296306737520925,0.084,alpha2
"('F7', 'Cz')",0.034,0.28634298189659807,0.28634298189659807,0.9168418000000004,0.31695383514207753,0.004,0.8997503999999993,0.31302430115111696,0.004,0.8923345999999996,0.3099092022541926,0.01,0.8163100000000008,0.30716749016318845,0.026,0.8048411999999998,0.2871532998384772,0.03,0.6652094000000004,0.2868016539586843,0.068,gamma
"('F3', 'F4')",0.0206,-0.2858995071256041,0.2858995071256041,0.9299044000000007,-0.33306411658476615,0.004,0.9005131999999997,-0.31739309277176164,0.002,0.8503549999999999,-0.3285473240444708,0.018,0.8453629999999996,-0.29245869226269244,0.014,0.7841239999999998,-0.29808935615741156,0.024,0.6590245999999996,-0.2930308483238739,0.06,beta2
"('Fp2', 'T4')",0.0094,-0.28555861969304536,0.28555861969304536,0.9164209999999995,-0.33246476350364546,0.006,0.8861466,-0.3240785336060258,0.008,0.8620158000000001,-0.318727862885567,0.012,0.7855172000000004,-0.32100734758492866,0.014,0.7237661999999994,-0.31823388218519216,0.042,0.5763347999999996,-0.30858177791956154,0.082,alpha2
"('F7', 'C3')",0.0154,-0.2831636946792606,0.2831636946792606,0.9480225999999997,-0.2996452656166273,0.002,0.9296430000000001,-0.2962692526862318,0.006,0.9129516000000003,-0.2982568472307729,0.006,0.8744150000000005,-0.28453532618954075,0.0,0.7969714,-0.29508905118800177,0.018,0.6451080000000002,-0.2933603191986189,0.032,beta2
"('F8', 'T4')",0.0198,-0.2811494481871242,0.2811494481871242,0.9429892000000004,-0.3031519480685805,0.002,0.9349663999999996,-0.2832236629793814,0.002,0.8978811999999997,-0.2879176550533169,0.002,0.8482297999999997,-0.2918419013351449,0.006,0.7660568000000001,-0.2974478511527976,0.02,0.6288960000000007,-0.29411751857146196,0.052,alpha2
"('F8', 'T4')",0.0261,-0.28017455102575634,0.28017455102575634,0.9682571999999998,-0.29586402188059524,0.002,0.9439126,-0.29489113309105314,0.0,0.9164060000000006,-0.2912627334024546,0.002,0.8527085999999999,-0.29519941399925753,0.014,0.7954492,-0.2976452575167442,0.014,0.6531728000000002,-0.2940632496648405,0.032,theta
"('T5', 'O2')",0.0244,0.27845706911459045,0.27845706911459045,0.9344169999999997,0.3159624728544744,0.012,0.9261352000000003,0.3201366054714283,0.004,0.8941058000000001,0.3051627628582353,0.012,0.8717854000000004,0.2916978219919293,0.016,0.8299959999999996,0.28617337375738006,0.01,0.6973600000000004,0.2874905355056475,0.042,beta1
"('F8', 'T5')",0.0366,-0.27471046145966926,0.27471046145966926,0.9143210000000002,-0.2975929969115393,0.004,0.894887,-0.316267952974975,0.014,0.8641772,-0.31703712261459527,0.016,0.8389328000000004,-0.2867467631430336,0.012,0.7821437999999994,-0.29758640260806024,0.038,0.6762529999999995,-0.28447985987381036,0.054,alpha1
"('Fp2', 'Cz')",0.0138,-0.2708268839585518,0.2708268839585518,0.9170268000000005,-0.3459938888466389,0.002,0.8987118000000004,-0.3380560330488178,0.006,0.8554010000000007,-0.32242676673639126,0.012,0.8114245999999993,-0.3261191644763365,0.044,0.7489213999999997,-0.3134951008693917,0.05,0.6234541999999998,-0.3101140123910368,0.086,theta
"('O2', 'P3')",0.0149,0.26879062613163834,0.26879062613163834,0.9112455999999999,0.362649209876869,0.01,0.8649436000000005,0.36314481591077785,0.02,0.8529422000000005,0.3357204625806649,0.032,0.8217279999999997,0.3237906979008521,0.03,0.7819525999999999,0.30458733853474856,0.04,0.6178188000000002,0.31192227168965675,0.068,beta1
