,p_vals_full,mean_eff_size,abs_eff_size,p_vals_sz_20,eff_size_sz_20,freq_repr_sz_20,p_vals_sz_25,eff_size_sz_25,freq_repr_sz_25,p_vals_sz_30,eff_size_sz_30,freq_repr_sz_30,p_vals_sz_40,eff_size_sz_40,freq_repr_sz_40,p_vals_sz_50,eff_size_sz_50,freq_repr_sz_50,p_vals_sz_70,eff_size_sz_70,freq_repr_sz_70,band
"('Fz', 'F4')",0.0,-1.0704906808507655,1.0704906808507655,0.01661051999999999,-1.1977708989271871,0.906,0.0038950399999999994,-1.1560290744344413,0.986,0.00130244,-1.1485155530066515,0.994,3.3359999999999925e-05,-1.111922168466485,1.0,1.800000000000001e-06,-1.0952759951055262,1.0,0.0,-1.072513203895657,1.0,alpha2
"('F3', 'Fz')",0.0,-1.0645120641805041,1.0645120641805041,0.029005319999999987,-1.204779608039638,0.854,0.00767936000000001,-1.1814903337983256,0.956,0.0020941600000000016,-1.1521031597932885,0.99,0.00017800000000000007,-1.1211442666359765,1.0,3.6800000000000016e-06,-1.091037355557094,1.0,0.0,-1.0938206503173393,1.0,alpha2
"('Fp1', 'Fz')",0.0,-1.0163475427119393,1.0163475427119393,0.020967759999999988,-1.1138748302375672,0.87,0.006564319999999998,-1.0996858570972274,0.978,0.0013687599999999992,-1.0728742575986772,0.998,0.00015775999999999995,-1.0528250058773942,1.0,1.3600000000000009e-05,-1.0277559298830672,1.0,4e-08,-1.0094635423425797,1.0,alpha2
"('F7', 'Fz')",0.0,-1.0005817959897862,1.0005817959897862,0.027282879999999992,-1.1743514451382413,0.86,0.010324640000000001,-1.15475599377138,0.954,0.00470892,-1.0885490191040008,0.972,0.00034899999999999997,-1.0773563530415682,1.0,2.9959999999999988e-05,-1.0485861060550505,1.0,1.2e-07,-1.0242179162699232,1.0,alpha2
"('Fp1', 'F3')",0.0,-0.9362082704755211,0.9362082704755211,0.021611880000000007,-1.1449661408090392,0.866,0.0062241599999999985,-1.1425726218060352,0.976,0.0011607200000000005,-1.1020397484189988,1.0,0.00018387999999999993,-1.073008197160361,1.0,4.200000000000003e-06,-1.035492070177179,1.0,0.0,-1.0235272693122992,1.0,alpha2
"('F3', 'F4')",0.0,-0.9207957111191918,0.9207957111191918,0.05722855999999996,-1.041088077776312,0.748,0.018241800000000002,-1.0308492802349805,0.89,0.0075600400000000074,-1.0039283330430775,0.962,0.0007746000000000008,-0.976024192369997,0.998,4.395999999999994e-05,-0.9538320839128734,1.0,1.6e-07,-0.9464306870280655,1.0,alpha2
"('Fp1', 'F7')",0.0,-0.9141569185680375,0.9141569185680375,0.04093708000000001,-1.0638034901949254,0.79,0.015855360000000016,-1.0235265089958,0.91,0.008300640000000012,-0.97327884222582,0.956,0.0007418399999999999,-0.9419865504885299,1.0,7.907999999999987e-05,-0.9228814241215461,1.0,3.1999999999999995e-07,-0.9094829625198775,1.0,alpha2
"('Fp1', 'F4')",0.0,-0.9048524675375645,0.9048524675375645,0.07140783999999997,-1.0015793597463138,0.676,0.030154079999999982,-0.9711693451936599,0.826,0.010845520000000011,-0.9620578164099436,0.93,0.0017362000000000018,-0.9463654138755223,0.996,0.00024676000000000006,-0.9143375232793944,1.0,7.599999999999999e-07,-0.8858206762360465,1.0,alpha2
"('Fp2', 'Fz')",0.0,-0.896242436432358,0.896242436432358,0.04839971999999997,-1.045784751768067,0.744,0.019903160000000017,-1.0242034694568891,0.89,0.00820328,-0.98617557975287,0.964,0.000993680000000001,-0.9699302282434864,0.998,0.00014119999999999994,-0.9426025906682505,1.0,4.8e-07,-0.9165359719500983,1.0,alpha2
"('F7', 'F3')",0.0,-0.883172227575584,0.883172227575584,0.02830968,-1.1095317749283318,0.802,0.01059252000000001,-1.081666231931333,0.944,0.004659520000000002,-1.0415417101785742,0.978,0.0004510000000000002,-0.9984979798657887,1.0,3.555999999999995e-05,-0.9628338764747181,1.0,8e-08,-0.9427187926183498,1.0,alpha2
"('Fp2', 'F4')",0.0,-0.8355894237791777,0.8355894237791777,0.06676068,-1.0439854907869828,0.69,0.02659008000000002,-1.02135223142244,0.838,0.013578520000000009,-0.9635817475843793,0.934,0.0014722000000000008,-0.9461815384755536,0.996,0.0002593200000000002,-0.9284662297501757,1.0,1.2400000000000002e-06,-0.8982981694941216,1.0,alpha2
"('F7', 'F4')",0.0,-0.818088315531651,0.818088315531651,0.08168580000000003,-0.9566516507957848,0.626,0.03768807999999996,-0.9362059676756089,0.81,0.024205719999999986,-0.8995903735008555,0.886,0.004988160000000002,-0.8933771796248231,0.976,0.0005941600000000003,-0.8606331260779533,1.0,4.400000000000003e-06,-0.8466245589400547,1.0,alpha2
"('F7', 'T6')",0.0,-0.7970759773059578,0.7970759773059578,0.13689532000000004,-0.8732094706466704,0.512,0.058723000000000046,-0.8798359983005238,0.742,0.0365948,-0.8361700158179376,0.796,0.008162120000000002,-0.8291444359768083,0.96,0.00204876,-0.8063547210856102,0.992,2.5799999999999966e-05,-0.7904798062785509,1.0,alpha2
"('C3', 'Cz')",0.0,-0.7963723984331055,0.7963723984331055,0.10139520000000006,-0.8889608696974796,0.556,0.05786428000000001,-0.8582487550496865,0.732,0.02148551999999999,-0.848335668455581,0.88,0.00506172,-0.8206271303401116,0.976,0.00064904,-0.8108583192017074,0.998,1.0520000000000004e-05,-0.8059904059578638,1.0,alpha2
"('Fp1', 'F3')",0.0,-0.7896243838525261,0.7896243838525261,0.06181703999999996,-0.8969216913909774,0.61,0.023580559999999987,-0.8853563668718517,0.866,0.00919060000000001,-0.8547350531637802,0.968,0.0010374800000000003,-0.8426947406433369,1.0,0.00013527999999999988,-0.8322851413182242,1.0,1.3600000000000003e-06,-0.8191576224250371,1.0,beta1
"('Fp2', 'F3')",0.0,-0.7836968024973117,0.7836968024973117,0.08176075999999993,-0.9266411887651274,0.594,0.03490339999999997,-0.9229091407681931,0.816,0.01653684,-0.8898382875818298,0.91,0.002809040000000001,-0.8738507708125341,0.992,0.00034156,-0.8465885510735255,1.0,4.840000000000002e-06,-0.8211975451519106,1.0,alpha2
"('Fp2', 'F4')",0.0,-0.7490772332676647,0.7490772332676647,0.1324673600000001,-0.8236909026735811,0.474,0.05674359999999997,-0.836021853142449,0.686,0.03544015999999995,-0.7989433388471998,0.81,0.0070087600000000045,-0.7815501475635531,0.972,0.0015164800000000017,-0.7822636378617435,0.996,1.4360000000000012e-05,-0.76490730894805,1.0,beta1
"('Fp1', 'O2')",0.0,-0.7434034336761763,0.7434034336761763,0.14196404000000004,-0.8565828905764065,0.466,0.09029948,-0.8220309018496549,0.64,0.05171732000000002,-0.8041789923148247,0.75,0.010479320000000004,-0.8031360201990383,0.94,0.002738080000000001,-0.7836299384912789,0.99,0.00015847999999999996,-0.7567184613923656,1.0,alpha2
"('F7', 'O2')",0.0,-0.7380618609271666,0.7380618609271666,0.12062016000000018,-0.8843909553828675,0.516,0.05623739999999998,-0.8780542167838852,0.716,0.039281079999999996,-0.8241641549317897,0.8,0.006579799999999999,-0.8283980641583001,0.966,0.0018333200000000011,-0.8020951008344587,0.992,1.9999999999999978e-05,-0.7877666882736235,1.0,alpha2
"('Fz', 'F8')",0.0,-0.737204171058451,0.737204171058451,0.14102412000000009,-0.8643257089881348,0.472,0.07843503999999997,-0.8381508189355328,0.648,0.05098671999999991,-0.8104511707339739,0.742,0.01025536,-0.807132323455391,0.948,0.002724999999999998,-0.7820549574718103,0.988,8.17999999999999e-05,-0.7576269554481871,1.0,alpha2
"('F4', 'F8')",0.0,-0.7307128300663377,0.7307128300663377,0.15467560000000005,-0.9445304510758167,0.54,0.09049128000000005,-0.9029887317705945,0.654,0.059753959999999974,-0.8716907589772545,0.744,0.01700088000000001,-0.8392656243611512,0.918,0.007442800000000001,-0.8107641118195522,0.968,0.00028332000000000015,-0.7872359985430699,1.0,alpha2
"('F7', 'Cz')",0.0,-0.7234674268765242,0.7234674268765242,0.16086175999999994,-0.8718202869911591,0.49,0.09840075999999998,-0.8494548590183558,0.67,0.06865355999999993,-0.79787129906353,0.716,0.023933360000000008,-0.7742720166309356,0.888,0.00597652,-0.7544501208133703,0.966,0.0001882000000000001,-0.7434268402459013,1.0,alpha2
"('Fp1', 'Fz')",0.0,-0.7142433741434129,0.7142433741434129,0.11585295999999994,-0.8246377731849859,0.452,0.05472319999999994,-0.8102115970731875,0.694,0.028913280000000013,-0.7971677467755618,0.838,0.00665899999999999,-0.7705750005909536,0.968,0.0008870400000000009,-0.7630012663493236,1.0,1.907999999999999e-05,-0.7550817618510347,1.0,beta1
"('T3', 'Cz')",0.0,-0.7087117456825627,0.7087117456825627,0.13755140000000002,-0.7921160408430331,0.424,0.07191211999999997,-0.7864803635488231,0.64,0.03513799999999998,-0.7699685032731028,0.804,0.010267039999999996,-0.7339470675143667,0.946,0.0015980800000000022,-0.7470865548246708,0.996,4.443999999999997e-05,-0.7388432905373404,1.0,alpha2
"('Fp2', 'Fz')",0.0,-0.7085091772655605,0.7085091772655605,0.16020596,-0.7679816563736839,0.35,0.08192007999999994,-0.7660381407986099,0.564,0.053436159999999976,-0.7419447675863453,0.736,0.012744840000000004,-0.7231897197018806,0.926,0.00276856,-0.7256659708678088,0.99,8.85999999999999e-05,-0.7153299443707262,1.0,beta1
"('Fp1', 'F3')",0.0,-0.703759319948891,0.703759319948891,0.09953356000000013,-0.815444514979478,0.438,0.04964807999999998,-0.792684950333585,0.67,0.026814360000000013,-0.7719610753139906,0.82,0.0049962,-0.75237797363594,0.992,0.0009975999999999995,-0.7395730556148432,1.0,2.8439999999999965e-05,-0.7130484860528168,1.0,alpha1
"('F3', 'F8')",0.0,-0.7007000363912246,0.7007000363912246,0.1479838,-0.8317385206852422,0.426,0.08030560000000007,-0.8099736553665641,0.658,0.05273167999999997,-0.7807004142792374,0.752,0.009099840000000003,-0.7757087062617806,0.96,0.002058880000000001,-0.762728736105847,0.996,7.355999999999991e-05,-0.7513844050461698,1.0,alpha2
"('Fp2', 'F7')",0.0,-0.6981402824536008,0.6981402824536008,0.1385743199999999,-0.8521216861616782,0.496,0.08278131999999999,-0.8161459513695859,0.632,0.049828599999999994,-0.7964023995451804,0.752,0.01485996000000001,-0.7743047104320082,0.922,0.003967199999999997,-0.7587422418156224,0.988,0.00010811999999999988,-0.7398336501658554,1.0,alpha2
"('T6', 'O2')",0.0,-0.6768138350101113,0.6768138350101113,0.1422415199999998,-0.8430520119764408,0.516,0.08565164000000001,-0.8074604266587566,0.652,0.05290864000000001,-0.7948067144796315,0.772,0.013498600000000005,-0.7892294794292775,0.926,0.00413116,-0.7634202481882577,0.982,0.00016496000000000016,-0.7465218806247224,1.0,alpha2
"('F4', 'Cz')",0.0,-0.6764856748610895,0.6764856748610895,0.1973221200000001,-0.7754755095519249,0.396,0.11796532000000008,-0.7500033906306582,0.534,0.07488775999999997,-0.7398992263096049,0.65,0.030621959999999986,-0.7068929097803633,0.848,0.008786880000000009,-0.697066392685723,0.946,0.00035108000000000003,-0.6977703681871291,1.0,alpha2
"('Fp1', 'T6')",0.0,-0.6662574096408511,0.6662574096408511,0.2049487200000002,-0.732970148204716,0.304,0.12450544000000006,-0.7353066922911577,0.506,0.08075600000000001,-0.7146759541177753,0.624,0.020790720000000006,-0.7219977633212343,0.906,0.008544200000000005,-0.7035791134191497,0.958,0.0002700800000000003,-0.6869844646620544,1.0,alpha2
"('T3', 'C3')",0.0,-0.6654424649668036,0.6654424649668036,0.16945432000000005,-0.7336210942290878,0.308,0.11168215999999996,-0.6950670513766608,0.508,0.06709891999999996,-0.6920719060035687,0.648,0.021184000000000015,-0.6805131746279295,0.876,0.004987399999999997,-0.6649182171970015,0.986,0.0002590400000000003,-0.6586693944301905,1.0,alpha2
"('F3', 'Cz')",0.0,-0.6610190402054325,0.6610190402054325,0.20682588000000013,-0.797977679234471,0.44,0.14486032000000007,-0.7679865714652196,0.576,0.0999096,-0.7468603725966895,0.652,0.05097264000000003,-0.7044322078906446,0.78,0.020571439999999996,-0.6797805096754916,0.888,0.0011669200000000008,-0.6896104674586441,0.998,alpha2
"('Fp1', 'Cz')",0.0,-0.6542638414340958,0.6542638414340958,0.22575363999999995,-0.6800672218202211,0.19,0.15793863999999988,-0.6640183444820236,0.35,0.10008932000000001,-0.6441414144192462,0.516,0.03933775999999998,-0.6327513310997898,0.762,0.012616799999999997,-0.6314818379421012,0.938,0.0009934400000000017,-0.6229846305417235,0.996,beta1
"('Fp1', 'F3')",0.0,-0.64747263762111,0.64747263762111,0.2155319599999999,-0.7021500209893092,0.282,0.1388691599999999,-0.6876750614401351,0.444,0.07948451999999996,-0.6863977453117667,0.602,0.035639799999999965,-0.6565810578488614,0.798,0.0120918,-0.6500710808759009,0.942,0.00076624,-0.6417929353078288,1.0,beta2
"('Fp2', 'F4')",0.0,-0.6455407989695696,0.6455407989695696,0.1751026000000001,-0.7680018223132343,0.39,0.08275827999999999,-0.7819908463274866,0.62,0.05450076000000008,-0.7596784772003379,0.752,0.016653960000000016,-0.7453327265141019,0.92,0.004551679999999999,-0.7355507647077852,0.984,0.00010743999999999981,-0.7198786599134439,1.0,beta2
"('F3', 'Fz')",0.0,-0.644468492671823,0.644468492671823,0.23741308000000005,-0.6922759829841442,0.208,0.14494096000000006,-0.6873710157153776,0.386,0.09369127999999997,-0.6725531625358723,0.56,0.03712004000000001,-0.6606327470190955,0.798,0.009257200000000007,-0.6419567712300304,0.95,0.0012116400000000019,-0.6377911392054939,0.998,beta1
"('Fp2', 'O2')",0.0,-0.6431904665701649,0.6431904665701649,0.23228187999999983,-0.7505256044373045,0.32,0.1489388399999998,-0.722347251689177,0.46,0.10289520000000005,-0.696564162379605,0.558,0.02900531999999999,-0.7224601772621305,0.846,0.012829839999999997,-0.6811452220237104,0.936,0.00155676,-0.6565532053212498,0.994,alpha2
"('F4', 'F8')",0.0,-0.6423231917272499,0.6423231917272499,0.18910803999999992,-0.725513750796807,0.284,0.10836931999999998,-0.7136471794543479,0.47,0.06995063999999998,-0.7031338811355621,0.64,0.024033200000000025,-0.6852967112686622,0.874,0.005848640000000006,-0.6818763088273729,0.968,0.0003252000000000001,-0.6730217085188497,1.0,beta2
"('Fz', 'T3')",0.0,-0.6373825566833088,0.6373825566833088,0.24634356000000007,-0.6764731437821442,0.24,0.18279208,-0.6573345153184535,0.384,0.12133311999999995,-0.652323078299044,0.536,0.05822032,-0.6329106983066788,0.728,0.015706880000000013,-0.6255549337668612,0.9,0.00211884,-0.6307508118952876,0.992,alpha2
"('F4', 'F8')",0.0,-0.6356509926111079,0.6356509926111079,0.2541658000000001,-0.7072072784839198,0.304,0.17501788,-0.6990742634521502,0.418,0.12972396000000005,-0.6834367468348349,0.522,0.06036187999999997,-0.6586946552120585,0.708,0.028468559999999987,-0.6511936576255521,0.856,0.003463559999999995,-0.64300272731107,0.988,beta1
"('Fp1', 'C3')",0.0,-0.6281194849162033,0.6281194849162033,0.23234504000000006,-0.6859089705534586,0.22,0.16212136000000002,-0.6610484687815603,0.398,0.11110812000000009,-0.6309588133199673,0.504,0.04030975999999999,-0.6232344134047364,0.776,0.016468520000000007,-0.6115248796479883,0.92,0.0009360000000000003,-0.6117150659119648,1.0,beta1
"('Fp1', 'F7')",0.0,-0.6276764634292946,0.6276764634292946,0.19727860000000008,-0.7248277129766051,0.312,0.12631256000000005,-0.7064412346560399,0.486,0.09999467999999997,-0.6703383528219005,0.54,0.03558044000000002,-0.6576566007382773,0.802,0.011829680000000006,-0.6568135113133752,0.944,0.0008972800000000005,-0.6501769989374817,0.998,beta2
"('Fp1', 'F4')",0.0,-0.6260249659840633,0.6260249659840633,0.24538799999999983,-0.6738973776596661,0.216,0.16051928000000004,-0.6599239783084155,0.374,0.11131852000000005,-0.6396151814446143,0.528,0.0479596,-0.6246303373246826,0.748,0.014190680000000011,-0.6329679347924614,0.924,0.0014630799999999994,-0.6075897341772369,0.998,alpha1
"('Cz', 'C4')",0.0,-0.6251748582427381,0.6251748582427381,0.22628348000000012,-0.7435378873702931,0.376,0.18859527999999992,-0.6978582343315314,0.434,0.13593048000000002,-0.695501295395468,0.608,0.06728707999999999,-0.6822382608421875,0.76,0.03266779999999996,-0.6528060822375374,0.828,0.00435568,-0.6467709177528453,0.982,alpha2
"('F3', 'T6')",0.0,-0.622224754427456,0.622224754427456,0.28272936,-0.6706827657793013,0.272,0.1794100800000001,-0.6876151244979035,0.412,0.13485440000000015,-0.6581392935697056,0.508,0.05058283999999997,-0.6591063361562579,0.764,0.022845560000000015,-0.6297291400092278,0.878,0.001751880000000001,-0.6276280342926904,0.994,alpha2
"('F8', 'O1')",0.0,-0.6204431832626792,0.6204431832626792,0.2562697199999999,-0.7140676574146678,0.3,0.1713079999999999,-0.6891656021639465,0.416,0.1255361200000001,-0.6586466911258569,0.542,0.041556119999999995,-0.6738350340731187,0.792,0.01827108,-0.6524930576192817,0.914,0.0012693600000000004,-0.6426528433465143,0.996,alpha2
"('Fz', 'F4')",0.0,-0.6203012855938509,0.6203012855938509,0.19273495999999996,-0.7629796636088705,0.302,0.12522223999999998,-0.7274109471527697,0.502,0.07887651999999999,-0.7190406230884695,0.594,0.02747768,-0.6934851299897623,0.844,0.008320320000000003,-0.6916117694815062,0.958,0.0004399999999999998,-0.6845016586806466,0.998,beta1
"('Fp1', 'Fz')",0.0,-0.6169952435484138,0.6169952435484138,0.23259275999999982,-0.6682868538857519,0.242,0.13318971999999996,-0.6813029948082594,0.424,0.08453787999999993,-0.6690467534370755,0.592,0.03706148,-0.6452968723795589,0.778,0.011124680000000008,-0.640511835022367,0.94,0.0006928000000000008,-0.6330443759598225,1.0,beta2
"('F7', 'F3')",0.0,-0.6155798904682057,0.6155798904682057,0.1883172,-0.7036484497631356,0.208,0.11527183999999992,-0.6857681374915985,0.356,0.07773039999999998,-0.6682186637598501,0.548,0.022561120000000004,-0.6546729140584754,0.868,0.006589279999999998,-0.64392598966746,0.972,0.0003417600000000007,-0.6308784842104477,1.0,beta1
"('Fp2', 'Cz')",0.0,-0.6125977809898998,0.6125977809898998,0.2512058,-0.6888749000801283,0.242,0.18417927999999997,-0.6509523098343557,0.342,0.12936971999999994,-0.6428566319030193,0.46,0.05462868000000002,-0.6282360400360443,0.686,0.01817692,-0.6302953482799117,0.898,0.0023406000000000004,-0.6166037031052931,0.99,beta1
"('Fp1', 'Fz')",0.0,-0.6046444778197647,0.6046444778197647,0.20694999999999975,-0.7020822618325435,0.266,0.12566643999999993,-0.695370731845221,0.476,0.09460207999999996,-0.6643538561782462,0.6,0.03592192,-0.640936362768271,0.808,0.011668320000000001,-0.6516698014199727,0.938,0.0009503200000000015,-0.628642985359211,0.998,alpha1
"('Fp1', 'F7')",0.0,-0.6016425413916823,0.6016425413916823,0.2090794,-0.720819004086276,0.314,0.14101380000000002,-0.7066591019582144,0.442,0.11701664000000005,-0.6566198700413889,0.532,0.044195280000000045,-0.6467993140676304,0.754,0.018993000000000003,-0.6399895002634269,0.906,0.001614840000000001,-0.6388309618804802,0.996,beta1
"('F7', 'F3')",0.0,-0.5979301335382209,0.5979301335382209,0.2019797999999999,-0.7132528587064345,0.298,0.14713876,-0.6927038812910306,0.466,0.12747152,-0.655141873232423,0.562,0.042009279999999975,-0.656868338459376,0.784,0.014319199999999997,-0.648192057300804,0.906,0.00168488,-0.6227709401923412,0.998,alpha1
"('F8', 'T5')",0.0,-0.5934165213679885,0.5934165213679885,0.27527652,-0.6611585614666028,0.208,0.17891691999999992,-0.6560060405320117,0.374,0.13607579999999997,-0.6291646413172459,0.492,0.06305179999999996,-0.6237804041387685,0.718,0.021977439999999987,-0.6188305506987266,0.904,0.001848600000000002,-0.6108411888804728,0.996,alpha2
"('Fp2', 'Fz')",0.0,-0.5920189700710243,0.5920189700710243,0.29443168000000036,-0.6456491274736815,0.216,0.20600836000000003,-0.6342079004718619,0.378,0.18106667999999998,-0.6020994252520233,0.452,0.10218119999999985,-0.5836946137934641,0.606,0.05229696000000007,-0.5780387498823379,0.744,0.013738280000000004,-0.5564540674500024,0.924,alpha1
"('F4', 'C3')",0.0,-0.5918717459293887,0.5918717459293887,0.28480344000000013,-0.6464980580787314,0.224,0.21663391999999998,-0.6205703389702952,0.346,0.13844680000000004,-0.6188364822933556,0.45,0.07187368000000001,-0.5932185809979809,0.66,0.025838240000000005,-0.590829525169826,0.858,0.002392959999999999,-0.592780389062536,0.996,alpha2
"('T5', 'O1')",0.0,-0.5908725157116292,0.5908725157116292,0.27738411999999973,-0.6729401800773763,0.256,0.1741404799999998,-0.6833061629900584,0.452,0.16691792000000016,-0.6192982862116515,0.474,0.08208247999999997,-0.6193282250263433,0.644,0.04546507999999995,-0.6112479614525231,0.782,0.00588344000000001,-0.5983571046258369,0.968,alpha2
"('C3', 'C4')",0.0,-0.5890471535843934,0.5890471535843934,0.2626062399999999,-0.6927343736005694,0.294,0.21375408000000015,-0.6477191999606664,0.364,0.13723040000000006,-0.6456139733146877,0.526,0.057975720000000015,-0.6331265932570828,0.742,0.025484319999999998,-0.6160747720487452,0.854,0.003160399999999999,-0.6111590349629024,0.99,alpha2
"('Fp1', 'Fp2')",0.0,-0.5853960245500044,0.5853960245500044,0.2513000800000001,-0.7150684892259782,0.298,0.16957772,-0.7113034203785554,0.458,0.10179023999999995,-0.6962996170910363,0.572,0.04695279999999999,-0.6829405461554042,0.756,0.019557079999999994,-0.6557142385724006,0.896,0.00228744,-0.6298368546349188,0.998,alpha2
"('Fp2', 'F8')",0.0,-0.5843214586220709,0.5843214586220709,0.24268572000000005,-0.7685299397315651,0.386,0.16108075999999993,-0.7479321396622565,0.522,0.13550424,-0.6940202765878285,0.532,0.06362323999999994,-0.6791963102943356,0.7,0.032404720000000005,-0.6618576473335973,0.834,0.004952079999999998,-0.6283768755481399,0.972,alpha2
"('Fp2', 'Fz')",0.0,-0.5835421542898124,0.5835421542898124,0.30064384000000005,-0.6221475042914357,0.21,0.19114072000000004,-0.6231054993855005,0.348,0.13415300000000002,-0.612147681594638,0.448,0.06805216000000003,-0.5884578735715149,0.642,0.027242239999999997,-0.5959350951238628,0.824,0.0038025599999999974,-0.5826250623554662,0.982,beta2
"('Fp2', 'C3')",0.0,-0.5767547200636606,0.5767547200636606,0.3128259999999999,-0.6110721367922223,0.18,0.22389616000000018,-0.5915675475803628,0.254,0.16192172000000005,-0.5812410852674975,0.362,0.06911848000000001,-0.5761361046217964,0.612,0.028358920000000006,-0.567329901644029,0.828,0.0031982799999999965,-0.5707066176490212,0.986,beta1
"('Fp1', 'F7')",0.0,-0.5715161432632183,0.5715161432632183,0.2543877600000002,-0.6494361887384786,0.212,0.18934692,-0.6265141813590536,0.318,0.16281199999999987,-0.5882510176700038,0.4,0.0653659600000001,-0.5897089220729638,0.672,0.026016520000000008,-0.5863561862470782,0.864,0.004930760000000001,-0.5711147090973738,0.982,alpha1
"('F7', 'F3')",0.0,-0.5706907577159525,0.5706907577159525,0.26918231999999986,-0.6363924935778535,0.184,0.1895033600000001,-0.6226809704496709,0.322,0.14016704000000013,-0.6114686027489807,0.458,0.05860756000000007,-0.602404490771239,0.716,0.024050600000000023,-0.5894008392866825,0.878,0.0034882399999999966,-0.5836265248498188,0.99,beta2
"('F3', 'Fz')",0.0,-0.5685303207648044,0.5685303207648044,0.26769448000000007,-0.7060371581428609,0.312,0.1832203200000002,-0.720261138988423,0.486,0.15174584000000005,-0.6724382898193508,0.556,0.08260587999999988,-0.6498123703559028,0.686,0.046272239999999944,-0.631372505446865,0.774,0.007786160000000001,-0.6157823034632386,0.938,alpha1
"('F3', 'Cz')",0.0,-0.5667944723953349,0.5667944723953349,0.26614904000000006,-0.67027562248097,0.194,0.1740207199999999,-0.6745310851620566,0.372,0.13544215999999995,-0.638246738126796,0.476,0.05900036000000002,-0.6264177809911731,0.714,0.022840280000000008,-0.6164090525841127,0.878,0.002121400000000001,-0.6090947677779881,0.992,beta1
"('T3', 'Pz')",0.0,-0.563666201173256,0.563666201173256,0.2942480799999998,-0.6393751336009512,0.2,0.21776427999999995,-0.6132741616899902,0.302,0.14709075999999996,-0.6152307484016579,0.436,0.07505052000000004,-0.5935606062951236,0.64,0.030284079999999977,-0.5921874609248404,0.808,0.003446479999999998,-0.5848358130194073,0.984,alpha2
"('Fp2', 'T6')",0.0,-0.5627161224868363,0.5627161224868363,0.3280800800000004,-0.6290556806102813,0.208,0.22434975999999981,-0.628096442876688,0.336,0.17136999999999997,-0.6120253122888063,0.422,0.07046031999999998,-0.6115251304722609,0.708,0.04217319999999996,-0.5850894186561368,0.788,0.0062160400000000095,-0.5754159764218034,0.974,alpha2
"('Fz', 'F4')",0.0,-0.5616724398554748,0.5616724398554748,0.30435239999999975,-0.6783952776791237,0.262,0.23575388000000003,-0.6549559885636878,0.386,0.20974396000000015,-0.6358855026919514,0.498,0.14664976000000005,-0.6059219273976985,0.622,0.11015412000000002,-0.5926289124929778,0.684,0.03891959999999997,-0.5649508822644387,0.764,alpha1
"('Fp2', 'F4')",0.0,-0.5576241028887552,0.5576241028887552,0.27030136,-0.6378456211417276,0.226,0.16251811999999996,-0.6509600165611512,0.388,0.12481584000000003,-0.6328036761034017,0.522,0.056592999999999984,-0.6147579004692953,0.722,0.02306136000000004,-0.6123216831357695,0.874,0.0023527599999999984,-0.60414157477609,0.996,gamma
"('Fp1', 'O1')",0.0,-0.5575216529980129,0.5575216529980129,0.37549616000000025,-0.5949446114724073,0.166,0.30313384000000015,-0.5643423010985337,0.224,0.24365304000000024,-0.5430363936702526,0.268,0.11507607999999996,-0.55882708716645,0.558,0.07060807999999999,-0.5358512933128138,0.664,0.01813695999999999,-0.5103665044866752,0.88,alpha2
"('Fp2', 'C4')",0.0,-0.5530379038832984,0.5530379038832984,0.3246920800000002,-0.604582854215547,0.148,0.24812444000000014,-0.577753943605975,0.218,0.19356616000000015,-0.5707701702722862,0.326,0.087546,-0.5653512239818036,0.58,0.04923092000000002,-0.5586645405474056,0.722,0.008828079999999997,-0.5506233102896123,0.964,beta1
"('Fz', 'T6')",0.0,-0.5528887868292225,0.5528887868292225,0.3696472,-0.5920825869288939,0.13,0.26174372000000007,-0.5983416506238357,0.284,0.20545268000000014,-0.5676316588432132,0.352,0.08706124000000001,-0.5771977818276846,0.616,0.05304096000000001,-0.5544073676698895,0.75,0.006372120000000003,-0.5500391899014715,0.97,alpha2
"('F7', 'Fz')",0.0,-0.551438372870441,0.551438372870441,0.30481195999999994,-0.6478974860151879,0.212,0.20861376000000004,-0.6299015883656318,0.326,0.16846855999999985,-0.5939952019240431,0.414,0.06832504,-0.5948000188168658,0.668,0.02878067999999998,-0.5930124745706354,0.854,0.005037040000000002,-0.5745074041476945,0.974,alpha1
"('Fp2', 'F3')",0.0,-0.54814076989697,0.54814076989697,0.25152295999999996,-0.6744617093259193,0.244,0.15049491999999992,-0.6733423122730101,0.404,0.12523175999999991,-0.6283092384054842,0.46,0.043339279999999994,-0.6299216777606919,0.76,0.018397560000000004,-0.6190312712662949,0.882,0.0025991600000000023,-0.5986550033926351,0.988,alpha1
"('O2', 'P3')",0.0,0.5431706248419907,0.5431706248419907,0.31796628000000005,0.6284869777605501,0.21,0.22258067999999998,0.6222768818624949,0.312,0.15673316000000004,0.6101987524093854,0.45,0.07289519999999998,0.5955468282009276,0.648,0.0341902,0.5779851719767489,0.806,0.005466360000000001,0.5667740986871709,0.978,alpha1
"('F3', 'F4')",0.0,-0.5422183046928449,0.5422183046928449,0.3862934399999999,-0.5770490055961585,0.17,0.2740838400000003,-0.5844835528212168,0.236,0.22491147999999994,-0.5564625646194187,0.328,0.11879855999999993,-0.547096012865846,0.516,0.06589380000000002,-0.5380033918000909,0.698,0.015986360000000005,-0.5234937167473099,0.898,alpha1
"('F7', 'F8')",0.0,-0.5415471468272895,0.5415471468272895,0.3272062800000002,-0.6449247299335965,0.224,0.25072364,-0.6075163864602116,0.28,0.19820139999999978,-0.5881909623487016,0.374,0.10177956,-0.5760026663651532,0.576,0.046821839999999976,-0.5767246142874116,0.766,0.009200800000000002,-0.56212694058341,0.944,alpha2
"('F7', 'Pz')",0.0,-0.5401487544867957,0.5401487544867957,0.3621628799999996,-0.6268022870776211,0.212,0.2803672799999997,-0.5948617878158758,0.28,0.2059651199999999,-0.5978032091966438,0.372,0.12181659999999987,-0.5684082256194453,0.56,0.05869231999999998,-0.5545524401164268,0.706,0.013375599999999993,-0.5512761744261407,0.934,alpha2
"('Fp1', 'F4')",0.0,-0.5389895444865591,0.5389895444865591,0.3215738000000001,-0.6039889880926917,0.162,0.21727008000000003,-0.6114823286952019,0.272,0.15457680000000004,-0.5921806947229957,0.398,0.07882975999999997,-0.5849991729271412,0.644,0.034556079999999996,-0.5737368274292378,0.786,0.0054299600000000045,-0.5649429074679808,0.976,beta1
"('F3', 'C3')",0.0,-0.5389840523800938,0.5389840523800938,0.32710240000000007,-0.583514809849116,0.112,0.23788152,-0.5756805738630045,0.182,0.17841824000000017,-0.5588006536096761,0.278,0.09275628000000002,-0.5483626620789986,0.5,0.048356280000000036,-0.5310832346885371,0.75,0.007164320000000006,-0.5345833478622076,0.972,beta1
"('O1', 'O2')",0.0,0.5346078502384934,0.5346078502384934,0.28335284000000016,0.7238826266067189,0.326,0.23452656000000002,0.675211191730119,0.414,0.1814692399999999,0.6693173175752886,0.526,0.09501023999999998,0.6453806114329451,0.678,0.06574328000000008,0.6169558178979531,0.742,0.013902600000000003,0.5824631422660292,0.912,alpha1
"('Fp2', 'F4')",0.0,-0.5344538257916915,0.5344538257916915,0.25856947999999996,-0.6785031019577669,0.236,0.15253199999999986,-0.680409128321866,0.386,0.12348600000000008,-0.6315460374620929,0.484,0.05691663999999993,-0.6187343574304957,0.688,0.02119928,-0.610121390003219,0.876,0.0032611599999999995,-0.5904208917771739,0.986,alpha1
"('F3', 'O2')",0.0,-0.5335567623255575,0.5335567623255575,0.3537465599999998,-0.6055935285475412,0.172,0.23668179999999975,-0.6162756958722924,0.314,0.20943007999999996,-0.5785887211829963,0.352,0.09209028000000008,-0.5892277622206253,0.616,0.053476279999999994,-0.5588770884667088,0.76,0.008237720000000006,-0.5527738294863784,0.962,alpha2
"('F3', 'T3')",0.0,-0.5332494932011586,0.5332494932011586,0.29302175999999996,-0.6297520706569144,0.214,0.2319259200000002,-0.6075574730805966,0.286,0.17333991999999998,-0.5976256012831344,0.408,0.08560755999999994,-0.5836526130556522,0.606,0.03781803999999996,-0.5728592477210922,0.778,0.0054578400000000055,-0.5591564738982462,0.98,alpha2
"('Fp1', 'F3')",0.0,-0.5311943901873465,0.5311943901873465,0.25978048000000004,-0.6181640138628646,0.116,0.1766447200000001,-0.606713596610421,0.208,0.1244786000000001,-0.5932423798716392,0.35,0.05384347999999996,-0.5751190690285035,0.666,0.021351360000000028,-0.5631513992715559,0.87,0.0029566,-0.5554439368076355,0.994,theta
"('T4', 'C4')",0.0,-0.5184157248160854,0.5184157248160854,0.43685115999999974,-0.5175585437070415,0.09,0.3398276799999999,-0.5214664690188042,0.162,0.2754490000000001,-0.4998994911027309,0.204,0.16944164000000006,-0.49040535311239936,0.388,0.1143353200000001,-0.4888721533508171,0.538,0.03507780000000001,-0.47209705087497184,0.79,beta1
"('O2', 'Pz')",0.0,0.5183694340751004,0.5183694340751004,0.3521780799999998,0.5849764078866376,0.15,0.2458043600000001,0.5887698991264024,0.268,0.1769388399999999,0.5809856443873679,0.404,0.08503908000000002,0.5735954962743487,0.63,0.04313395999999998,0.5626966335863302,0.794,0.00824228000000001,0.5469356574537569,0.95,alpha1
"('T4', 'C4')",0.0,-0.5167033857230716,0.5167033857230716,0.3580338799999998,-0.5583767281097676,0.096,0.25486424,-0.5582947689023059,0.192,0.19914464000000012,-0.5426738645816342,0.284,0.10529151999999997,-0.5320487342032932,0.478,0.05577836000000005,-0.5202213537010395,0.69,0.010733520000000009,-0.5160074533432999,0.94,alpha2
"('F7', 'O1')",0.0,-0.5165185436293289,0.5165185436293289,0.40545703999999994,-0.5608803631770853,0.13,0.33015055999999987,-0.5408964758690114,0.21,0.2807684800000004,-0.5198799896840098,0.262,0.15804796000000002,-0.5048989713886498,0.416,0.09842707999999989,-0.5063311331850896,0.606,0.027971520000000003,-0.49038831210865774,0.846,alpha2
"('Fp1', 'C3')",0.0,-0.5149810152746286,0.5149810152746286,0.34425252,-0.5814646342980615,0.164,0.27264828000000024,-0.5669977018944343,0.25,0.22815188,-0.5444744171407682,0.31,0.12386484000000006,-0.5436276100414859,0.52,0.06415607999999995,-0.5344412223200865,0.682,0.01886139999999999,-0.5165883667381715,0.888,alpha1
"('F3', 'C4')",0.0,-0.5131097175190701,0.5131097175190701,0.39750108000000006,-0.5600436622486039,0.14,0.3358452000000001,-0.5353872917122193,0.208,0.2394323999999999,-0.5419230417366814,0.322,0.16096828,-0.5129834958346259,0.438,0.08607759999999999,-0.5108533406484916,0.596,0.02050492000000001,-0.5068041136197402,0.87,alpha2
"('Fp1', 'F8')",0.0,-0.5114937477288825,0.5114937477288825,0.2950001600000001,-0.6822363652898759,0.222,0.22869412000000003,-0.6478371353452462,0.368,0.16199811999999997,-0.6287407219059458,0.444,0.07901815999999996,-0.6301218518152832,0.686,0.04463343999999996,-0.6029941211919025,0.794,0.007714519999999999,-0.5805800253646491,0.964,alpha2
"('Fp2', 'C3')",0.0,-0.5103843833642606,0.5103843833642606,0.3418560000000004,-0.5918326757368925,0.18,0.26090351999999994,-0.5641323030457217,0.246,0.20337404000000017,-0.5520219808620134,0.316,0.09869675999999995,-0.5544274059818008,0.566,0.050464719999999984,-0.5431058471139075,0.728,0.010476360000000004,-0.5374943636932614,0.944,alpha1
"('T4', 'C4')",0.0,-0.5071236786261915,0.5071236786261915,0.37576904000000017,-0.5644509448882988,0.158,0.2873658799999996,-0.5610147419932652,0.24,0.22032471999999972,-0.5467628728072419,0.292,0.11347028000000006,-0.5490480642739887,0.552,0.06888071999999991,-0.5320259570404681,0.658,0.01816456,-0.5176671462163135,0.912,beta2
"('Fp2', 'O1')",0.0,-0.5050888728907279,0.5050888728907279,0.36587588,-0.5964489081134213,0.17,0.28261071999999987,-0.5814831570094449,0.272,0.24639427999999997,-0.5477431848075254,0.322,0.10875771999999996,-0.5852600283360817,0.622,0.07763563999999999,-0.5392657854413773,0.678,0.020526159999999998,-0.5213759746708148,0.886,alpha2
"('Fp2', 'F3')",0.0,-0.5038668991344785,0.5038668991344785,0.3156448399999999,-0.5980890507237837,0.144,0.20793279999999997,-0.5975237621681171,0.22,0.17135123999999988,-0.5727186213264983,0.33,0.07331056,-0.5679907266707181,0.612,0.035194320000000015,-0.5569626854140897,0.78,0.0065447600000000045,-0.5477480918198749,0.978,beta1
"('F8', 'T4')",0.0,-0.501621759908988,0.501621759908988,0.4267984799999999,-0.5149104538963012,0.104,0.3469153599999999,-0.4994445200033243,0.122,0.25872167999999995,-0.5077905559664377,0.238,0.14742864000000003,-0.5109592491022724,0.424,0.09118932000000002,-0.49635764373752844,0.582,0.024748720000000005,-0.483461892568131,0.854,beta2
"('F4', 'T4')",0.0,-0.49947370960447735,0.49947370960447735,0.4286668,-0.5233353029680373,0.106,0.3387640000000002,-0.5163389409824342,0.158,0.2792732400000001,-0.5030272234165258,0.218,0.18518255999999997,-0.4954347599056386,0.378,0.11984619999999999,-0.48901607712320655,0.52,0.035887439999999986,-0.47636615417715633,0.798,beta1
"('Fp1', 'T3')",0.0,-0.49666779156146024,0.49666779156146024,0.35820955999999987,-0.5823847365932807,0.148,0.29647420000000024,-0.5552853792614372,0.242,0.22866496000000014,-0.5440483406511333,0.306,0.14676704000000007,-0.5147107324854152,0.452,0.06578407999999994,-0.5250027937264741,0.65,0.01687952,-0.5157392658271664,0.908,alpha2
"('Fp1', 'Cz')",0.0,-0.49666125796477323,0.49666125796477323,0.4126894400000002,-0.5176304896710097,0.106,0.33734388000000026,-0.5049242597302714,0.148,0.28357704000000006,-0.48937624611103153,0.2,0.17738724000000003,-0.47759109679870143,0.314,0.09871375999999996,-0.4834559949152683,0.564,0.03303339999999996,-0.46516193247335,0.812,alpha1
"('T5', 'O1')",0.0,-0.49619360364620463,0.49619360364620463,0.41635963999999986,-0.532580722861311,0.08,0.30784632000000006,-0.5322355181875978,0.166,0.25720704000000016,-0.5140779364408098,0.22,0.16152816000000003,-0.4971658616379701,0.38,0.10124459999999995,-0.48733090305812865,0.542,0.029174119999999977,-0.4719512396527976,0.842,beta2
"('F8', 'O2')",0.0,-0.49508301885696293,0.49508301885696293,0.34854768000000014,-0.6157541859363436,0.184,0.2746872,-0.5906563351528912,0.262,0.21029468000000012,-0.5740952936989275,0.346,0.11627403999999995,-0.5680097282599194,0.582,0.060581759999999915,-0.5489642316200217,0.696,0.012463600000000007,-0.5418047163500854,0.934,alpha2
"('T6', 'Pz')",0.0,0.4945782965559193,0.4945782965559193,0.4005065600000001,0.5660914546811313,0.142,0.29971304000000026,0.5678266853179624,0.262,0.23538200000000012,0.55117711260365,0.322,0.12460248000000002,0.5468181362029494,0.514,0.06982091999999997,0.5284533976320537,0.672,0.022563200000000012,0.5145813479071129,0.908,alpha1
"('F7', 'C3')",0.0,-0.49437559606766096,0.49437559606766096,0.4767778000000003,-0.4882285551715523,0.07,0.38627572000000004,-0.4737588865111853,0.092,0.34959208,-0.4512229346093395,0.142,0.21528908000000005,-0.457064769746819,0.296,0.14310084000000003,-0.4528589495487548,0.436,0.04848568000000003,-0.4495265173226433,0.748,beta1
"('Fp1', 'F3')",0.0,-0.4935030008803456,0.4935030008803456,0.33590367999999987,-0.5328154221954872,0.07,0.25096416000000016,-0.5263884487880565,0.126,0.19061719999999996,-0.513102397021851,0.182,0.10221576000000011,-0.5116062050850024,0.482,0.049635120000000005,-0.4984139947003212,0.682,0.010115159999999993,-0.4935182034436542,0.96,delta
"('F7', 'C3')",0.0,-0.4926999369226951,0.4926999369226951,0.3699847200000001,-0.5931104731763069,0.188,0.30862863999999995,-0.5815471777568237,0.246,0.26289848,-0.5496440287222263,0.316,0.16600896,-0.5349376955427779,0.474,0.08745603999999997,-0.5195631508915035,0.636,0.028938919999999965,-0.5073999602967395,0.848,alpha2
"('F8', 'Cz')",0.0,-0.4882877547016126,0.4882877547016126,0.37345360000000016,-0.5838327678961865,0.156,0.2890412,-0.5686313100755795,0.196,0.2276998799999999,-0.5539734086905149,0.328,0.1263485999999999,-0.5476317300346569,0.506,0.07300287999999999,-0.5266943487862895,0.65,0.017998719999999992,-0.5192886269630445,0.886,alpha2
"('T6', 'O2')",0.0,-0.48815879784123595,0.48815879784123595,0.40824507999999987,-0.5426328571000005,0.078,0.32234435999999994,-0.526453851494621,0.154,0.2783533599999999,-0.5025894206029949,0.212,0.17559955999999993,-0.494530051359969,0.37,0.11135207999999996,-0.47466815788937017,0.51,0.03258608000000001,-0.46724868875426184,0.832,beta2
"('Fp1', 'F7')",0.0,-0.48603522628178064,0.48603522628178064,0.3767126800000001,-0.5493084643426926,0.104,0.30706755999999985,-0.5239833261358262,0.166,0.27014256,-0.49835488506601977,0.242,0.16084367999999993,-0.4887683649310794,0.4,0.10063760000000009,-0.4847921020969218,0.55,0.026131079999999984,-0.48813458198922155,0.87,gamma
"('Fz', 'O2')",0.0,-0.4858836261426676,0.4858836261426676,0.4381134400000001,-0.5281762439328693,0.102,0.3395468400000002,-0.5274581682587118,0.168,0.3098030799999998,-0.49388966241366056,0.23,0.1560683200000001,-0.503275967645246,0.41,0.11482720000000002,-0.4731872660236295,0.528,0.028423119999999996,-0.47518851045465527,0.842,alpha2
"('Fp1', 'Fz')",0.0,-0.4850856631261998,0.4850856631261998,0.3659101200000004,-0.5206814809307352,0.062,0.27627644,-0.5096704751079375,0.11,0.20327299999999987,-0.511659538431587,0.186,0.10949808000000007,-0.509210058303209,0.464,0.04934567999999998,-0.5066088336923024,0.708,0.013552120000000015,-0.48998312567772456,0.928,delta
"('F7', 'T3')",0.0,-0.48470809685254573,0.48470809685254573,0.39322124000000014,-0.5644128466459142,0.138,0.32700244000000006,-0.5457658977401919,0.202,0.24924692000000004,-0.546963961895443,0.312,0.1617241199999999,-0.517800841022298,0.436,0.11019484000000003,-0.4998641293716107,0.54,0.028764240000000007,-0.5035303293905706,0.824,beta1
"('F7', 'P4')",0.0,-0.4815319802751544,0.4815319802751544,0.40788760000000013,-0.5670260781769021,0.14,0.3125099200000002,-0.5481137509045189,0.192,0.2752865200000001,-0.5239905625105272,0.252,0.14601832000000003,-0.5219887713056874,0.492,0.09753447999999997,-0.5030527566775838,0.592,0.025240359999999976,-0.4995696467135988,0.872,alpha2
"('F4', 'C4')",0.0,-0.4808897638171194,0.4808897638171194,0.4085897999999997,-0.5421504322311477,0.122,0.33917764000000006,-0.5082464457262665,0.128,0.2861627200000004,-0.5016373616155007,0.194,0.18289247999999975,-0.4827105044605661,0.304,0.10661340000000005,-0.4828263165995372,0.5,0.03544212000000001,-0.47321955001767374,0.792,beta1
"('Fp1', 'C3')",0.0,-0.4802588099669505,0.4802588099669505,0.3728192,-0.5385491944478928,0.106,0.30380124,-0.526788746036266,0.182,0.2476227999999997,-0.5109046933614746,0.228,0.12829172,-0.5166551502083041,0.46,0.07211920000000001,-0.500107077719944,0.638,0.019277520000000017,-0.49621615781249895,0.884,delta
"('O1', 'O2')",0.0,0.47789446627025145,0.47789446627025145,0.39335979999999976,0.6080176368053037,0.204,0.30162544,0.5859483070379011,0.26,0.27406563999999994,0.5489627710443395,0.308,0.15748719999999997,0.5372882093905004,0.492,0.09960235999999997,0.5287926590202304,0.598,0.032197,0.5066238434716949,0.842,delta
"('F4', 'T3')",0.0,-0.4776518777710951,0.4776518777710951,0.46677256,-0.5055722085419939,0.112,0.3905423600000003,-0.4921466792096544,0.162,0.32192735999999994,-0.4845776994899978,0.208,0.23682835999999982,-0.4605019420475759,0.292,0.14674760000000003,-0.46035932655497486,0.472,0.049159599999999984,-0.4526924945088216,0.758,alpha2
"('Fp1', 'Cz')",0.0,-0.47620681466227693,0.47620681466227693,0.3781203200000003,-0.5693418857850141,0.156,0.3007292399999999,-0.5472676804687244,0.212,0.23809615999999986,-0.5368726344816148,0.292,0.14579856000000005,-0.5204330934673362,0.47,0.0810098400000001,-0.515744081509055,0.622,0.021076800000000007,-0.4991019324643808,0.896,alpha2
"('Fz', 'F4')",0.0,-0.4746912298171805,0.4746912298171805,0.3869120000000004,-0.5508463586544915,0.112,0.30926103999999993,-0.5344764774287063,0.182,0.25296455999999984,-0.5235416945786737,0.246,0.16501924000000012,-0.5012957337066954,0.38,0.08246148,-0.5084199366441339,0.612,0.02319604,-0.4982037722399744,0.876,beta2
"('F4', 'O1')",0.0,-0.47218280621211556,0.47218280621211556,0.4497056800000001,-0.5170426420472186,0.074,0.36714755999999976,-0.49393031556756645,0.12,0.3070984400000001,-0.47792540956703267,0.192,0.15374923999999993,-0.5009617754704936,0.41,0.11161015999999993,-0.4723643317820793,0.55,0.032701520000000026,-0.46179204082828346,0.814,alpha2
"('Fp1', 'Fz')",0.0,-0.47035243119039316,0.47035243119039316,0.39920964000000014,-0.4937325312526917,0.058,0.29793540000000013,-0.5013711283738108,0.12,0.24412783999999982,-0.4900748057622205,0.182,0.14006803999999998,-0.4809014036480732,0.348,0.06768088000000003,-0.4895619852317148,0.636,0.01998679999999999,-0.4800097134964596,0.89,theta
"('Fp1', 'Cz')",0.0,-0.4697237664173809,0.4697237664173809,0.46638947999999997,-0.47866809884884254,0.074,0.3738996800000005,-0.4885138328422103,0.134,0.31025148,-0.47968656643444807,0.206,0.22223743999999993,-0.4539757013634717,0.292,0.1254586000000001,-0.46796574395543655,0.46,0.043721280000000036,-0.45529345833505663,0.76,beta2
"('F4', 'F8')",0.0,-0.46540182971579885,0.46540182971579885,0.4096681600000001,-0.5691528014051597,0.152,0.34302055999999986,-0.5488957685941022,0.226,0.3233716800000001,-0.5165723829973006,0.284,0.20116291999999986,-0.5108076152617256,0.398,0.13330436,-0.49402121474509664,0.53,0.051159559999999965,-0.47736911907918556,0.74,alpha1
"('Fp1', 'C3')",0.0,-0.46531699052348224,0.46531699052348224,0.44023556000000025,-0.48919783747103196,0.05,0.35683980000000015,-0.4745266806747557,0.09,0.28430795999999986,-0.45824396220042213,0.118,0.17027587999999994,-0.467024603276913,0.312,0.09932507999999993,-0.45362293997808784,0.484,0.031661119999999994,-0.4544715003976778,0.822,theta
"('F3', 'C3')",0.0,-0.46313385280016617,0.46313385280016617,0.4588983999999996,-0.47458573536219534,0.048,0.3898069600000001,-0.46382847343599354,0.092,0.30450255999999987,-0.4631646890769641,0.138,0.21822024000000004,-0.44391379178435225,0.286,0.14193000000000008,-0.4296547254374887,0.392,0.048655040000000024,-0.4388269755419498,0.732,alpha2
"('F3', 'F4')",0.0,-0.4626113998054401,0.4626113998054401,0.4953665199999999,-0.4758653827846124,0.052,0.39338632000000007,-0.49411581516671593,0.132,0.32282779999999983,-0.47346340374430923,0.164,0.20931279999999997,-0.46800515801387527,0.31,0.13544427999999994,-0.4633982551790456,0.452,0.04174964000000002,-0.46109466329776727,0.782,beta1
"('T5', 'O2')",0.0,0.4624424493513926,0.4624424493513926,0.47615540000000023,0.5243591758236007,0.13,0.40057451999999943,0.5138158995574569,0.178,0.3253071600000002,0.5024411593010474,0.23,0.21854700000000019,0.4803697279942443,0.346,0.14065255999999995,0.4830132139980261,0.524,0.049986999999999955,0.46187930085401296,0.774,alpha1
"('Fp1', 'Fp2')",0.0,-0.46052579815176503,0.46052579815176503,0.42047047999999976,-0.4972929368498977,0.072,0.3299802800000004,-0.49674942267264793,0.144,0.2580186400000001,-0.4888355216941147,0.208,0.1709498,-0.4743833025410847,0.334,0.09516928000000004,-0.47748328015056907,0.528,0.028392119999999976,-0.46376832126248624,0.844,beta2
"('F4', 'T4')",0.0,-0.4600817014010702,0.4600817014010702,0.45987903999999985,-0.48518390985377674,0.098,0.36981692000000016,-0.4922698492947417,0.132,0.3024408800000003,-0.4832531061735229,0.202,0.18793875999999998,-0.48977706617293726,0.362,0.11232444000000001,-0.4889161552979237,0.51,0.044939280000000026,-0.4611720129633696,0.78,beta2
"('F4', 'C3')",0.0,-0.4598406589255218,0.4598406589255218,0.4800359200000001,-0.4819326222578421,0.056,0.4187234799999999,-0.4581610692263294,0.108,0.3463467600000002,-0.4600473193830989,0.164,0.22657355999999987,-0.4492107288777218,0.23,0.14267932000000003,-0.44825461121269605,0.412,0.052828399999999984,-0.44742634788868657,0.734,beta1
"('T6', 'C4')",0.0,0.45861344675544763,0.45861344675544763,0.46678835999999996,0.5064593962917926,0.074,0.36715924000000033,0.5051191174379374,0.148,0.31259872,0.4805802185886897,0.196,0.2045220399999999,0.47997281533007286,0.394,0.11775664000000007,0.4707764937946923,0.512,0.04499695999999994,0.45836726691857566,0.766,alpha1
"('C3', 'Pz')",0.0,-0.45703072069107165,0.45703072069107165,0.4119183600000004,-0.5406492440608048,0.12,0.3566178799999999,-0.5099631872122107,0.17,0.2533829200000001,-0.5227553493213289,0.248,0.13917751999999994,-0.5155056657000728,0.444,0.08337839999999999,-0.49921221622730994,0.602,0.020223080000000008,-0.49216624795150477,0.884,alpha2
"('F3', 'Fz')",0.0,-0.4553049675086318,0.4553049675086318,0.5198338400000003,-0.4547141950532265,0.078,0.42125331999999993,-0.45578365136577814,0.112,0.37717903999999985,-0.4406419357304221,0.154,0.27303436000000025,-0.42719520392450705,0.248,0.20974336000000007,-0.4126410996226602,0.314,0.08000619999999996,-0.41648863898497884,0.606,theta
"('T3', 'T6')",0.0,-0.4540445161405569,0.4540445161405569,0.48611960000000043,-0.5036410760593775,0.07,0.37968135999999997,-0.4967969535021355,0.144,0.29121155999999987,-0.5067336091188309,0.196,0.17199764000000003,-0.4982408735712871,0.404,0.10231355999999997,-0.4844185928588537,0.548,0.03604803999999996,-0.4739811059795595,0.812,alpha2
"('Fp1', 'F4')",0.0,-0.4535148426608816,0.4535148426608816,0.46120228000000024,-0.4808798246192288,0.092,0.3362068799999999,-0.5055705568406627,0.162,0.27376335999999973,-0.5034390134717054,0.208,0.1847938799999998,-0.48039050691814733,0.374,0.10763608000000008,-0.4771917320313166,0.506,0.03268548,-0.4728386752614527,0.814,beta2
"('O2', 'Pz')",0.0,0.4527363979423707,0.4527363979423707,0.4496078800000003,0.5128907733780903,0.092,0.34744004,0.5069884354525459,0.142,0.30808915999999964,0.48318349679879435,0.196,0.19106016,0.4773182111573505,0.338,0.11144927999999994,0.47173984010550274,0.532,0.03934388,0.46581726156589887,0.79,delta
"('Fp1', 'C3')",0.0,-0.45188695040099375,0.45188695040099375,0.44596123999999987,-0.49789919756302115,0.11,0.38538772000000016,-0.4737687683044167,0.15,0.3418811600000002,-0.4619833325780956,0.202,0.23615528000000002,-0.44797465066509917,0.312,0.16341988000000002,-0.4472572635339136,0.428,0.06608156000000004,-0.434493743283909,0.69,alpha2
"('F7', 'Cz')",0.0,-0.4493567967027657,0.4493567967027657,0.4572309600000008,-0.5096020452855287,0.112,0.36500400000000044,-0.5072504627948056,0.172,0.32252220000000026,-0.4741556927852561,0.19,0.1919824000000001,-0.48188768648359026,0.4,0.11899132000000003,-0.47143928984808875,0.49,0.04284527999999996,-0.45843188897603376,0.762,alpha1
"('Fp1', 'T3')",2e-05,-0.4490001295460485,0.4490001295460485,0.47449492000000004,-0.47646721813880644,0.076,0.4324428400000005,-0.43786241123690767,0.07,0.38141548000000014,-0.42673174919977663,0.128,0.2636735999999997,-0.43155448725018725,0.258,0.15936207999999982,-0.43550034480075656,0.392,0.07180243999999998,-0.4233882205005262,0.63,alpha1
"('F3', 'C3')",0.0,-0.44811780876702934,0.44811780876702934,0.45653424000000026,-0.47864072915537903,0.05,0.36085744000000003,-0.4741167655448836,0.092,0.27679056000000013,-0.47469018448194866,0.172,0.1940681200000001,-0.4552080983973731,0.274,0.1055992800000001,-0.4617836422656368,0.502,0.03030551999999998,-0.4560299580858719,0.834,beta2
"('T4', 'P4')",0.0,-0.44741591219644317,0.44741591219644317,0.4497043599999996,-0.5318389942414276,0.138,0.3515141999999998,-0.5200228042823504,0.214,0.29302984000000015,-0.5085070781629666,0.218,0.17347440000000017,-0.510094906836396,0.426,0.11356303999999999,-0.4901378076210817,0.512,0.03817475999999996,-0.476756863463145,0.8,beta2
"('Fp1', 'F3')",2e-05,-0.4463199211313742,0.4463199211313742,0.4848481599999998,-0.4430694812376338,0.07,0.4106275600000003,-0.4381897838821199,0.078,0.3313188799999994,-0.44034496255842853,0.138,0.25877031999999994,-0.41198415448453557,0.226,0.18107176000000005,-0.41649603097607435,0.344,0.07394344000000003,-0.40957453334900434,0.602,gamma
"('F4', 'Cz')",5.9999999999999995e-05,-0.4456437447885958,0.4456437447885958,0.515016,-0.45705851771131834,0.088,0.45104507999999993,-0.4386315052970549,0.102,0.3975506400000002,-0.4259786966533929,0.148,0.3074276799999999,-0.40479916903919577,0.188,0.1970966800000002,-0.4277062512893592,0.372,0.10119228000000006,-0.40591654578720904,0.546,alpha1
"('Fp2', 'Cz')",0.0,-0.44560430334539036,0.44560430334539036,0.42361196,-0.5068807596458867,0.096,0.34200443999999985,-0.5003901974966882,0.14,0.28630407999999996,-0.48735189518897626,0.212,0.1816816800000001,-0.47648912650135844,0.356,0.11599191999999996,-0.4700801080117754,0.52,0.039002079999999974,-0.4592338323846448,0.782,alpha2
"('Fz', 'C3')",0.0,-0.444517082975204,0.444517082975204,0.4734115999999996,-0.4892257950053429,0.096,0.41166644000000047,-0.4658271569451774,0.134,0.3197153200000002,-0.4680301335600853,0.202,0.23753584000000014,-0.44526206782191957,0.282,0.15371524000000011,-0.446946348755382,0.42,0.05126115999999997,-0.4424728094454688,0.73,alpha2
"('F7', 'T3')",0.0,-0.4422924558991338,0.4422924558991338,0.45990500000000023,-0.5027738211658633,0.108,0.4023443999999999,-0.4765591772147844,0.112,0.29685467999999987,-0.4940702954165879,0.22,0.21960924000000004,-0.46682782236504533,0.308,0.15359699999999987,-0.4553847192202455,0.422,0.06055779999999997,-0.4437257699635726,0.686,beta2
"('F4', 'T4')",2e-05,-0.4421408606113764,0.4421408606113764,0.5197114000000002,-0.45190675780940565,0.058,0.4568427999999997,-0.4293106360461787,0.076,0.3712811200000001,-0.435355661636827,0.124,0.25423460000000003,-0.4350371248784269,0.27,0.16661399999999996,-0.43518172345984985,0.38,0.07159552000000002,-0.41657835279229644,0.654,gamma
"('F4', 'T4')",0.0,-0.44125392149083764,0.44125392149083764,0.4683392399999999,-0.5049086953327022,0.106,0.37855119999999987,-0.4983473731564249,0.166,0.33227463999999957,-0.48097869927972065,0.222,0.23227360000000008,-0.4588883119904889,0.314,0.15266688000000006,-0.4563349273542593,0.438,0.05812832000000004,-0.451861861323377,0.706,alpha2
"('F3', 'T3')",0.0,-0.440380874860543,0.440380874860543,0.45069927999999987,-0.5179382068073881,0.144,0.3814267200000002,-0.499209195370016,0.162,0.29177428,-0.5052116502580237,0.224,0.19359615999999982,-0.4937575478580576,0.372,0.13461856000000008,-0.4684238522323141,0.462,0.04395151999999999,-0.47188431385747703,0.762,beta1
"('T4', 'Cz')",0.0,-0.4401369229425039,0.4401369229425039,0.4598866400000002,-0.48207456670692916,0.07,0.36212644000000027,-0.4948209993813854,0.136,0.31468043999999973,-0.4721486586817548,0.198,0.1970648399999999,-0.4788946210141756,0.354,0.12077640000000005,-0.4714265720113417,0.504,0.04586156000000001,-0.4552125295498285,0.78,alpha2
"('Fp1', 'T3')",0.0,-0.4395160250059619,0.4395160250059619,0.47339543999999995,-0.49155362893066934,0.102,0.42867248,-0.4621979833857225,0.12,0.3722312399999999,-0.4436802628891258,0.162,0.27002664,-0.4307409832370161,0.256,0.17077179999999997,-0.4382627527342628,0.372,0.07527648000000009,-0.42671375511379167,0.616,theta
"('F4', 'T5')",0.0,-0.4376021689098595,0.4376021689098595,0.46995896000000015,-0.5079438385319894,0.086,0.37187331999999995,-0.5086046303292598,0.152,0.321179,-0.48089368500267843,0.172,0.18775455999999993,-0.4827733014755696,0.342,0.12362879999999994,-0.4729901007500153,0.476,0.038792079999999965,-0.4667516873545796,0.792,alpha2
"('Fp2', 'T5')",0.0,-0.4367620150714792,0.4367620150714792,0.4966927599999998,-0.5256790155376916,0.094,0.3975230399999998,-0.5061462453187616,0.168,0.36434148,-0.46803243327747196,0.164,0.22704288,-0.47848946021762606,0.338,0.16618319999999995,-0.4551237965476674,0.432,0.06270303999999997,-0.44516230787860267,0.7,alpha2
"('Fp2', 'C3')",0.0,-0.4338219065170472,0.4338219065170472,0.4845050400000005,-0.4571660578173399,0.054,0.4058277200000002,-0.45693059180400236,0.106,0.3416452800000002,-0.4461125001460445,0.118,0.2197738000000001,-0.44470549066309545,0.256,0.14682604000000007,-0.43563369005722524,0.352,0.05379224000000002,-0.4345179548215592,0.706,delta
"('Fz', 'Cz')",0.0,-0.43361201478760814,0.43361201478760814,0.43210688,-0.5380031633052696,0.172,0.3675101600000001,-0.49875050575608443,0.164,0.28578072000000004,-0.5117803228598701,0.292,0.21750867999999993,-0.4834561460231609,0.382,0.14588564,-0.4634599791189348,0.47,0.043106080000000005,-0.46445137432054856,0.764,alpha2
"('F4', 'Cz')",0.0,-0.4327882512494388,0.4327882512494388,0.3886586800000003,-0.5729501049394782,0.138,0.3158141199999998,-0.532882432421196,0.164,0.25678059999999986,-0.5310497270918418,0.26,0.15265636,-0.5133988754353996,0.394,0.07665619999999995,-0.5196363961102046,0.608,0.02060784000000002,-0.5146278870686464,0.882,beta1
"('F3', 'C3')",0.0,-0.4315713435889186,0.4315713435889186,0.46023988000000016,-0.4663966885450944,0.044,0.37185892000000015,-0.46634729579895284,0.074,0.29614912000000004,-0.4548990422818692,0.104,0.20721255999999985,-0.4424841959484225,0.254,0.12632987999999998,-0.4391355486483313,0.39,0.036014040000000004,-0.4422048737688128,0.774,delta
"('P3', 'Pz')",0.0,-0.4304725805266904,0.4304725805266904,0.42290084000000056,-0.5239673181053616,0.132,0.37690140000000005,-0.5074578200224878,0.206,0.3266287999999998,-0.4786527776950983,0.232,0.19751900000000003,-0.49236479629556185,0.38,0.14286899999999997,-0.4718055667581142,0.474,0.05327607999999997,-0.4598328629746254,0.718,alpha2
"('O1', 'O2')",0.0,0.42876466590120366,0.42876466590120366,0.47284572000000014,0.5256301627209173,0.128,0.4235257599999997,0.49290022004667466,0.146,0.3865227199999999,0.4729909050991402,0.196,0.2594112399999996,0.46186155290198266,0.318,0.19285856000000004,0.44858525506671526,0.422,0.09764004000000001,0.4230661901484012,0.586,theta
"('F7', 'Fz')",0.0,-0.42683943883944025,0.42683943883944025,0.4713549200000005,-0.4744493088126327,0.042,0.38539944000000004,-0.47396528638121005,0.106,0.33309711999999964,-0.4589166909576942,0.144,0.20257356000000015,-0.4604920347849353,0.254,0.1377320800000001,-0.4493565395221019,0.404,0.04409100000000002,-0.44669728949501053,0.772,beta1
"('Fp2', 'F8')",0.0,-0.42630426826863677,0.42630426826863677,0.41025944000000025,-0.5133824389961416,0.092,0.33721536000000024,-0.49030514566728467,0.138,0.26891524000000017,-0.47836642888074943,0.178,0.17796944000000006,-0.46516393882179197,0.322,0.10500799999999999,-0.46676848487064015,0.494,0.032374879999999995,-0.456524441912815,0.798,beta2
"('O2', 'Cz')",0.0,0.4258351221666573,0.4258351221666573,0.45141712,0.5387657209179681,0.15,0.36648264000000025,0.5218032200499647,0.2,0.33218727999999986,0.49840610898505794,0.222,0.19244695999999986,0.4961920949815822,0.392,0.12890284,0.4885303362574575,0.54,0.04742024000000001,0.4666151319518717,0.756,alpha1
"('C3', 'Cz')",2e-05,-0.4257889638862157,0.4257889638862157,0.47207364000000007,-0.49648968480927697,0.058,0.44754355999999973,-0.45460088897425627,0.102,0.37278951999999993,-0.44606229107575646,0.124,0.2427838399999999,-0.4437129917010449,0.25,0.17055696000000006,-0.4324271582747688,0.344,0.08141120000000006,-0.4202225934468043,0.562,beta1
"('F3', 'F8')",2e-05,-0.4250561070341514,0.4250561070341514,0.49688571999999975,-0.4786861023211243,0.086,0.4224975199999999,-0.46251776868999117,0.106,0.3923877599999999,-0.4366377514290127,0.134,0.2430356799999997,-0.4542084022476276,0.3,0.1714473599999998,-0.4409995573544258,0.39,0.07421108000000004,-0.4278061645518804,0.678,alpha1
"('Fz', 'Cz')",0.0,-0.42441609986474155,0.42441609986474155,0.39950732000000033,-0.571300215825478,0.146,0.36441395999999976,-0.521740509455461,0.184,0.3051711599999999,-0.5132456648236652,0.264,0.2064438400000001,-0.5045680994297131,0.416,0.14673876000000002,-0.48563772057023996,0.498,0.05748152,-0.4783366660280217,0.712,beta1
"('Fp2', 'F3')",0.0,-0.4231331030837492,0.4231331030837492,0.4768080000000002,-0.4559450772446019,0.026,0.3881748400000002,-0.4630731013395373,0.098,0.36265267999999956,-0.4336109337948225,0.118,0.2285584000000001,-0.44105484882904505,0.24,0.1655418399999999,-0.42860608854164595,0.376,0.07291172000000001,-0.42201658599346037,0.62,theta
"('O2', 'P3')",0.0,0.4208430773766506,0.4208430773766506,0.49173375999999996,0.4800654274370973,0.052,0.41937743999999955,0.4622965831329909,0.106,0.3836174800000001,0.4339055532661905,0.134,0.25377500000000003,0.4285656129911797,0.252,0.18438663999999982,0.4264785766373434,0.386,0.07067204,0.4205779470213994,0.66,delta
"('F3', 'T3')",0.0,-0.4204856903259384,0.4204856903259384,0.4840100400000004,-0.508116181456125,0.124,0.4108615600000004,-0.47765948483357756,0.14,0.32890791999999974,-0.49470974673040524,0.232,0.2432310400000002,-0.4664178359844703,0.328,0.17257328000000005,-0.4523456966080952,0.366,0.07622439999999998,-0.4394585935141727,0.632,beta2
"('F7', 'Fz')",2e-05,-0.42035445966279206,0.42035445966279206,0.5311031200000002,-0.4397795305185039,0.06,0.45165240000000034,-0.43049888002557535,0.094,0.4024611199999997,-0.40801213193422237,0.106,0.28211916000000004,-0.4149243679271409,0.2,0.1950102799999999,-0.40644286785125405,0.316,0.08907951999999997,-0.40462648255000067,0.576,theta
"('F7', 'C3')",2e-05,-0.4201811476407495,0.4201811476407495,0.49960980000000005,-0.4620347425545041,0.064,0.3957313200000001,-0.4579560002456914,0.1,0.3459351600000001,-0.44538070984181355,0.126,0.21862448000000012,-0.4422694259974206,0.266,0.15420324000000007,-0.4325453478002218,0.408,0.06034415999999997,-0.42846038966975025,0.686,alpha1
"('F7', 'F3')",0.0,-0.4193580864419585,0.4193580864419585,0.41715191999999995,-0.5004232623185392,0.068,0.35428907999999987,-0.4722924185972016,0.074,0.3068646399999999,-0.45232499360278206,0.126,0.18545715999999993,-0.4593597284820121,0.264,0.1038882000000001,-0.457743943009331,0.438,0.03683228000000001,-0.44585415773197623,0.782,theta
"('F7', 'C4')",0.0,-0.41776197534763754,0.41776197534763754,0.48014064000000006,-0.479310012524877,0.074,0.4103218800000003,-0.4669952030928423,0.09,0.32608267999999985,-0.47159974391273846,0.19,0.2265087600000001,-0.4525945688542961,0.288,0.13638388,-0.4519346223112903,0.452,0.05498479999999998,-0.4451632374806857,0.73,alpha2
"('Fp2', 'Fz')",4e-05,-0.4177343125222463,0.4177343125222463,0.49009524000000043,-0.44379144592098446,0.038,0.39447360000000004,-0.4498941746496669,0.102,0.35648707999999985,-0.42861186751125097,0.122,0.26937028,-0.4156204790528968,0.244,0.18510544000000004,-0.423046496366734,0.382,0.10529544000000009,-0.40772928345812864,0.556,theta
"('O2', 'Cz')",0.0,0.41645688679559384,0.41645688679559384,0.48900316,0.5025949409364318,0.092,0.43898316000000015,0.48147731909688224,0.148,0.3648561199999997,0.46209782048336256,0.19,0.2303729200000001,0.47983569315838753,0.298,0.1647073200000001,0.45704132987652385,0.448,0.08307224000000003,0.4288612871438592,0.618,beta2
"('Fz', 'F4')",4e-05,-0.41597432880635987,0.41597432880635987,0.5780028799999998,-0.40203377398924567,0.056,0.48476867999999984,-0.4090162475925756,0.07,0.41781272000000025,-0.40527473966429134,0.1,0.3432421999999997,-0.37901426967535345,0.166,0.22127184000000022,-0.4020714251130529,0.328,0.10746068000000003,-0.3932106652613967,0.532,theta
"('Fz', 'F8')",2e-05,-0.4153312897496414,0.4153312897496414,0.45771084000000023,-0.5246040954162569,0.104,0.38293543999999974,-0.5111604903017306,0.188,0.36348608000000016,-0.47340501636041593,0.208,0.2477736800000002,-0.4682534211444636,0.316,0.16496476,-0.46295240389868797,0.45,0.07048043999999998,-0.44591441574723056,0.668,alpha1
"('T4', 'C4')",2e-05,-0.413742162263386,0.413742162263386,0.499325,-0.45257622780395307,0.048,0.3960880000000003,-0.452981476773272,0.058,0.33481428000000024,-0.43548581787701307,0.108,0.24907431999999993,-0.4197242127532319,0.2,0.14927172000000002,-0.42312271301644633,0.356,0.05488475999999997,-0.419111144011167,0.68,alpha1
"('F7', 'F4')",2e-05,-0.4133697563856738,0.4133697563856738,0.4891215999999999,-0.5018565588375705,0.118,0.3896047199999999,-0.4953089270229245,0.152,0.35823211999999954,-0.45714534207243007,0.168,0.23111296000000006,-0.4640498333151339,0.306,0.16049732000000003,-0.45277902100048667,0.432,0.06847816,-0.4356116592404667,0.68,alpha1
"('Fz', 'T4')",0.0,-0.40999118415890023,0.40999118415890023,0.47445540000000036,-0.4825305971248114,0.09,0.38957504,-0.47296696131752974,0.128,0.33070371999999987,-0.46439304835075496,0.184,0.2299733999999999,-0.4448209187102355,0.288,0.14553764000000008,-0.45222044247155374,0.44,0.06035471999999999,-0.43977055101473045,0.696,alpha2
"('O1', 'C4')",4e-05,0.40517404718636757,0.40517404718636757,0.5560033200000003,0.4455389630716651,0.06,0.47117008000000055,0.4430274955041704,0.106,0.4144434399999997,0.42482229063120897,0.118,0.2791958800000002,0.4288084096799869,0.224,0.22679239999999992,0.404361085553804,0.328,0.10330956000000006,0.39851007420847884,0.542,alpha1
"('F3', 'Cz')",0.0,-0.40496155855470173,0.40496155855470173,0.5227442400000002,-0.45315858013224397,0.056,0.44270624000000003,-0.43853275160762983,0.07,0.35634583999999997,-0.441725046548102,0.122,0.2734454399999998,-0.4175345116626425,0.214,0.1726966399999999,-0.4252581465053275,0.35,0.08721464000000007,-0.41195583644776435,0.592,beta2
"('Fp1', 'C4')",0.0,-0.4049104188947779,0.4049104188947779,0.5073711600000004,-0.4493401885452174,0.048,0.4417903999999997,-0.4364235242732269,0.104,0.36104956,-0.4372375343793871,0.11,0.24873827999999998,-0.4295590975912974,0.208,0.1903721599999999,-0.42014871871447607,0.334,0.07928355999999999,-0.41333464649755836,0.584,beta1
"('F4', 'F8')",0.0,-0.4039884419335193,0.4039884419335193,0.5085522000000003,-0.4471811111630791,0.05,0.42625551999999983,-0.4348722689577093,0.07,0.34088511999999993,-0.44592009003881394,0.144,0.24635567999999997,-0.4257530615811539,0.218,0.15620987999999986,-0.4326777904071128,0.36,0.05721559999999997,-0.4269848639824152,0.662,gamma
"('F4', 'C4')",0.0,-0.4031906092244125,0.4031906092244125,0.5051785999999998,-0.46451512740492745,0.092,0.4503323999999997,-0.4322579483660753,0.106,0.36948116000000025,-0.44034011375591436,0.17,0.2908584399999999,-0.4128482543005721,0.232,0.19192127999999986,-0.42134882611474184,0.362,0.08790804000000002,-0.4085146793189624,0.562,alpha2
"('F7', 'Cz')",0.00018,-0.4026486781102756,0.4026486781102756,0.5668933999999999,-0.42967322566696375,0.046,0.4793996399999999,-0.42412016352637744,0.076,0.4580379600000003,-0.38969845606558196,0.086,0.3358857199999999,-0.39369000712254093,0.168,0.25463595999999983,-0.3856556259945299,0.24,0.12439032000000003,-0.3814197734804552,0.46,beta1
"('Fp2', 'F4')",0.0,-0.40196539147267674,0.40196539147267674,0.4671677600000001,-0.44282000141436834,0.036,0.37421387999999983,-0.4561091626089936,0.078,0.32075128,-0.4371536737675692,0.12,0.2320487599999999,-0.43292355404294147,0.25,0.14907708000000006,-0.43199196377512955,0.398,0.06530504000000004,-0.4272923333723376,0.664,delta
"('Fp2', 'F3')",2e-05,-0.401085496793831,0.401085496793831,0.5440288400000002,-0.4169627299303609,0.058,0.42205840000000006,-0.44437845317673613,0.098,0.3987564400000003,-0.4193844461597103,0.118,0.28523372000000047,-0.41179333615241753,0.21,0.21765719999999988,-0.4009974614097651,0.274,0.10391107999999999,-0.39451078534783385,0.53,beta2
"('T5', 'O1')",2e-05,-0.4010721323090819,0.4010721323090819,0.48443768,-0.4558488283022389,0.06,0.42606091999999995,-0.4367512923035312,0.082,0.35580268,-0.43304950019721294,0.132,0.2531030000000001,-0.4230127190131075,0.236,0.18720608000000008,-0.4125134377406149,0.324,0.08100311999999998,-0.4039648167158292,0.596,gamma
"('F8', 'Pz')",2e-05,-0.40079580982635826,0.40079580982635826,0.5716352400000003,-0.4122962222410205,0.05,0.50738636,-0.40764997757396443,0.058,0.42864508000000023,-0.4108460962996375,0.102,0.32225347999999976,-0.39625197864246203,0.188,0.2527493599999999,-0.3768777873598794,0.222,0.12265896000000007,-0.3811919398793019,0.492,alpha2
"('Fp1', 'C3')",0.0,-0.400572449619314,0.400572449619314,0.47573500000000024,-0.47665332125303345,0.076,0.38287619999999967,-0.47612820656642985,0.136,0.3253590000000003,-0.46548458110486157,0.174,0.2394414800000002,-0.44785914078133077,0.276,0.14453879999999988,-0.44723056071689,0.432,0.045402399999999975,-0.44233855956223334,0.736,beta2
"('O1', 'O2')",0.0,0.39980138419256656,0.39980138419256656,0.49962567999999963,0.47292214062587035,0.066,0.4699303600000001,0.43975231827827777,0.094,0.3468443599999997,0.4582230425985289,0.156,0.23659824000000002,0.45135227115059245,0.288,0.16808116,0.44139842572530635,0.406,0.07196119999999999,0.42946771709923354,0.646,beta2
"('F8', 'C3')",0.0,0.3994234029603934,0.3994234029603934,0.5123992799999999,0.4622808186463669,0.056,0.4273125600000001,0.46479936504358943,0.124,0.4093140799999997,0.42242319848374676,0.11,0.2678176000000001,0.4312484499070689,0.256,0.18581919999999993,0.42381983584376165,0.37,0.07808256000000001,0.42096438451918783,0.616,gamma
"('Fp1', 'C4')",2e-05,-0.39931109234226037,0.39931109234226037,0.5464060800000001,-0.4140327302360263,0.038,0.45302560000000025,-0.41889016259149536,0.068,0.3926877199999999,-0.41038053304157934,0.094,0.2924636800000003,-0.4008406732370905,0.15,0.18205207999999987,-0.408296785060684,0.324,0.09341419999999993,-0.3982397371297217,0.56,theta
"('O2', 'C3')",0.0,0.399199324316149,0.399199324316149,0.5058719599999998,0.4941174443845335,0.082,0.44731400000000004,0.4745254443956996,0.118,0.36230179999999984,0.4700247219385117,0.16,0.24345855999999988,0.46121157918669836,0.302,0.15861248000000003,0.45054601986830034,0.436,0.08186812000000009,0.43271130214045067,0.626,beta2
"('F3', 'Fz')",0.0,-0.39835205725778156,0.39835205725778156,0.5146909600000003,-0.439699343713383,0.042,0.4086744400000002,-0.45002877769968047,0.074,0.3294844800000002,-0.44686507326915137,0.136,0.24048807999999985,-0.425577766793234,0.206,0.15018788000000008,-0.43154242777327423,0.356,0.06438988000000004,-0.422801491259025,0.688,beta2
"('Fp1', 'F4')",0.0,-0.3973277820688999,0.3973277820688999,0.4641771600000001,-0.47188073515956624,0.044,0.35394872000000027,-0.48004875345511794,0.108,0.29714791999999984,-0.4675786487443856,0.168,0.20481704000000003,-0.4548715077311254,0.3,0.10461208,-0.47333563792840444,0.52,0.039056000000000014,-0.4561346682228173,0.766,theta
"('T3', 'P3')",2e-05,-0.3971053092464183,0.3971053092464183,0.5357728799999998,-0.44494064771822756,0.064,0.45729236000000034,-0.4457504388982816,0.108,0.39205824,-0.43939263754581925,0.148,0.30028944,-0.4155721844644444,0.208,0.22727079999999988,-0.4040958169334747,0.316,0.10683735999999999,-0.39469115620443496,0.506,beta2
"('Fp1', 'F7')",0.0001,-0.3949496515088886,0.3949496515088886,0.5225254400000003,-0.4145141300504757,0.016,0.46100264000000046,-0.40986395933419384,0.066,0.43014736000000003,-0.3773284785910294,0.062,0.31358712,-0.378689118633682,0.104,0.2303692399999998,-0.37545257803536947,0.186,0.11417556,-0.3739674425470269,0.444,theta
"('F7', 'F3')",2e-05,-0.39439565421067857,0.39439565421067857,0.51324104,-0.4384333288208648,0.038,0.4673874000000005,-0.41112336656245574,0.092,0.39766512000000015,-0.41079743462048823,0.1,0.28149068,-0.40062350283099585,0.186,0.21200444000000013,-0.39534981102067496,0.264,0.09748136000000006,-0.3961682355377322,0.528,gamma
"('Fp2', 'F7')",2e-05,-0.3939803131087533,0.3939803131087533,0.5058453199999997,-0.4499462210680875,0.068,0.4095042000000001,-0.4534883507508142,0.1,0.3915240399999998,-0.42398015345910783,0.126,0.24143915999999987,-0.4299104264475345,0.232,0.1550101600000001,-0.4287399040575022,0.382,0.06772452,-0.42337928304187056,0.638,alpha1
"('O1', 'Cz')",2e-05,0.39330721630172266,0.39330721630172266,0.5231933999999999,0.47391969158062885,0.076,0.44313411999999974,0.4565385297153729,0.108,0.39403756000000006,0.4420565913356982,0.16,0.2633592800000001,0.44104248481606867,0.268,0.19862807999999968,0.4253793419667811,0.392,0.08394703999999999,0.41713693188569423,0.62,alpha1
"('Fp2', 'Cz')",5.9999999999999995e-05,-0.3926831139285964,0.3926831139285964,0.5368559600000001,-0.4098755740907003,0.04,0.45326708000000027,-0.41839671631317527,0.074,0.41483896000000053,-0.39405697823748426,0.096,0.29638172,-0.39277760396916317,0.168,0.21550900000000023,-0.39094806329405235,0.26,0.11633712000000006,-0.3871189767772487,0.474,delta
"('T4', 'C4')",2e-05,-0.39220381238320867,0.39220381238320867,0.5365525999999999,-0.4233784972507402,0.026,0.42832731999999996,-0.43119279523988613,0.056,0.35662572,-0.42230573594456794,0.06,0.2795472000000001,-0.4027139912738847,0.142,0.17997152000000005,-0.4060731839581628,0.27,0.07944780000000004,-0.39535242649135277,0.55,theta
"('Fp2', 'F8')",0.0,-0.3918295609735098,0.3918295609735098,0.4810830400000001,-0.4549485056702446,0.058,0.40246144000000017,-0.4402149219505761,0.072,0.3407807199999999,-0.4325890191478067,0.098,0.25659760000000004,-0.4137237660548656,0.186,0.17035048,-0.4184907806434644,0.32,0.07069727999999999,-0.41154415729873656,0.638,beta1
"('Fz', 'O1')",0.00016,-0.39147616869477886,0.39147616869477886,0.6013963600000003,-0.4037938813071289,0.028,0.5455800400000003,-0.3869386190321794,0.062,0.5037961599999999,-0.3642499094109991,0.076,0.38656923999999987,-0.3679739223469725,0.152,0.2953687599999998,-0.3624258318458392,0.214,0.16771548000000006,-0.3556669836122241,0.382,alpha2
"('F8', 'T4')",2e-05,-0.3894762429519944,0.3894762429519944,0.5347245599999998,-0.41328460821069846,0.04,0.46861071999999987,-0.41961928756351075,0.052,0.3969819600000002,-0.4167481461791458,0.108,0.2854973599999999,-0.4108129847424678,0.198,0.21668184,-0.40249225268948546,0.282,0.09784075999999997,-0.398437449593144,0.514,beta1
"('O2', 'C4')",4e-05,0.38930025473147667,0.38930025473147667,0.5622979200000005,0.4260430395476057,0.048,0.4760517999999996,0.4373819808177303,0.086,0.4307776799999998,0.4127319837376848,0.104,0.28821371999999995,0.4119250244382095,0.192,0.19406132000000006,0.410881184003966,0.338,0.10056572000000005,0.3981884990855375,0.544,alpha1
"('F7', 'T3')",0.0,-0.38828124112804757,0.38828124112804757,0.49735660000000054,-0.45383359823111935,0.05,0.42629439999999985,-0.4463188497011438,0.118,0.38384207999999975,-0.42830148537719354,0.152,0.26493271999999973,-0.42551684286965663,0.27,0.18494675999999988,-0.4151740335612687,0.322,0.08465164000000004,-0.4114579967759397,0.58,alpha2
"('T3', 'P3')",0.0,-0.387475295310566,0.387475295310566,0.5269395200000002,-0.42927214265180236,0.04,0.4436872000000003,-0.4255426549173032,0.054,0.39272771999999995,-0.41388168857153707,0.122,0.29633032000000015,-0.4007533129194322,0.178,0.23605927999999984,-0.3878036999262362,0.288,0.09628244,-0.3919270858250862,0.554,alpha2
"('O2', 'C3')",8e-05,0.38714056290953297,0.38714056290953297,0.5588327199999997,0.46089870210065387,0.096,0.47739499999999996,0.4553535196502622,0.124,0.4545290799999999,0.4203682349656885,0.142,0.31373540000000016,0.4185663368453989,0.23,0.2604642400000001,0.40243883794618346,0.314,0.12927835999999995,0.39459657672802095,0.494,alpha1
"('F3', 'Cz')",5.9999999999999995e-05,-0.3867418581067173,0.3867418581067173,0.5385580000000001,-0.4429159032727726,0.074,0.44981936,-0.4378431401203138,0.1,0.4084003999999999,-0.41747503820485526,0.128,0.3076402400000003,-0.4003809475018327,0.192,0.20426431999999972,-0.4072088054795905,0.308,0.09367103999999994,-0.3999424970008918,0.568,alpha1
"('Fp2', 'F4')",2e-05,-0.3865512632336495,0.3865512632336495,0.4696468400000004,-0.4729131749429492,0.072,0.38457639999999976,-0.47632446473944173,0.126,0.3521822800000003,-0.449867461974079,0.174,0.27260568000000024,-0.43305480553869896,0.278,0.18578868,-0.4321136438022897,0.4,0.0933013599999999,-0.40950272357358397,0.556,theta
"('T6', 'P3')",2e-05,0.38557851662640114,0.38557851662640114,0.5319488399999991,0.47820472223882143,0.082,0.45553064000000015,0.4737388536508851,0.144,0.39716484000000013,0.4626168523542775,0.194,0.28213859999999996,0.4536839886038185,0.298,0.21690247999999981,0.4288477799422724,0.352,0.11418231999999998,0.4066172348715549,0.536,alpha1
"('Fp2', 'C4')",4e-05,-0.3842543260960264,0.3842543260960264,0.5719122400000001,-0.4064673841385239,0.058,0.49910715999999966,-0.4012552153675398,0.07,0.42167983999999964,-0.4063776898513668,0.11,0.3527454000000001,-0.3781243507929853,0.15,0.25355332000000025,-0.3866956890276173,0.272,0.13246148000000005,-0.37240418724558577,0.442,beta2
"('F4', 'Cz')",4e-05,-0.3830803278875021,0.3830803278875021,0.5425627600000006,-0.4399916046616847,0.064,0.4939716400000002,-0.4158350280929795,0.076,0.43975156000000004,-0.406693766773683,0.132,0.35038948,-0.3854696170976624,0.156,0.22950507999999986,-0.40807211041320945,0.31,0.12469231999999991,-0.39002778976216584,0.448,beta2
"('Fp2', 'C3')",0.0001,-0.382256857938694,0.382256857938694,0.5489291200000003,-0.418041982609224,0.036,0.48495903999999995,-0.4051300591092837,0.088,0.4378819199999999,-0.3914152638558148,0.08,0.31076308,-0.39481181653486797,0.142,0.24525423999999996,-0.38196809859229497,0.246,0.12369892,-0.3821194904178175,0.48,theta
"('F4', 'C4')",0.00012000000000000002,-0.3812468187065564,0.3812468187065564,0.54191908,-0.41610070952731026,0.05,0.4613299199999998,-0.4130604421742211,0.054,0.40650900000000006,-0.4096875324078409,0.116,0.33718620000000027,-0.37843444315415525,0.152,0.22753444000000014,-0.39507719329366553,0.296,0.12017123999999993,-0.38538046203907655,0.464,beta2
"('Fz', 'F8')",0.0,-0.38099417991672146,0.38099417991672146,0.5123098399999999,-0.46891220454362675,0.072,0.42710839999999994,-0.449656863607517,0.096,0.37781219999999965,-0.44341895666500664,0.146,0.2536207200000003,-0.4418186769623845,0.256,0.18331731999999998,-0.4355459493625055,0.352,0.07527967999999992,-0.429370549200847,0.618,beta1
"('F4', 'Pz')",0.0,-0.3803899094159651,0.3803899094159651,0.5362544000000001,-0.43496720882416434,0.052,0.47650708000000047,-0.4187258504212573,0.08,0.3824070399999999,-0.432256676315163,0.148,0.3074824400000001,-0.40632007907261586,0.206,0.21854335999999994,-0.3976824104551878,0.278,0.08563276000000003,-0.4056675325629728,0.598,alpha2
"('Fz', 'C4')",0.0,-0.3755030328472668,0.3755030328472668,0.5229171600000002,-0.46971937465298197,0.116,0.4751408000000004,-0.4273489011612521,0.114,0.3794348400000004,-0.4559272914153638,0.194,0.3169599999999999,-0.4204740568485973,0.236,0.2200600000000001,-0.4165537097952428,0.322,0.10285576000000002,-0.4022613400866157,0.564,alpha2
"('T4', 'T6')",0.0006,-0.37539894843667077,0.37539894843667077,0.6195752000000001,-0.36961421252601795,0.024,0.5854825600000004,-0.34495298207302355,0.054,0.5168839199999997,-0.36101203554510064,0.062,0.3974377200000001,-0.36152388773135113,0.16,0.32957240000000027,-0.34196284827899265,0.16,0.19664964000000013,-0.33245183738985606,0.292,gamma
"('Fp1', 'T3')",2e-05,-0.37273253857729793,0.37273253857729793,0.49166828000000046,-0.4805739903831153,0.068,0.46028972000000024,-0.43445279520586877,0.104,0.40123092000000016,-0.43176048617741275,0.162,0.29633803999999986,-0.4282813614105824,0.274,0.23105612000000011,-0.4134214930756897,0.328,0.12033480000000002,-0.40327216618421113,0.506,delta
"('F7', 'T3')",4e-05,-0.37249660466348544,0.37249660466348544,0.5246835199999997,-0.42765087598005846,0.036,0.4673828000000001,-0.4093552138390989,0.05,0.41666363999999967,-0.3999589516556861,0.104,0.29643064,-0.40359720805785904,0.202,0.23026288000000006,-0.386461803399131,0.252,0.10092619999999998,-0.38587548241649305,0.496,delta
"('T3', 'C3')",4e-05,-0.37192566158872975,0.37192566158872975,0.5518356000000002,-0.42800763598051217,0.048,0.4621034000000003,-0.429695949220098,0.082,0.40814968,-0.4131067246777701,0.12,0.32330752000000007,-0.3975726593169978,0.184,0.2464339200000001,-0.3957081565048295,0.284,0.12779972000000003,-0.38755918373352005,0.472,beta2
"('T3', 'T5')",0.00011999999999999999,-0.37130177476326587,0.37130177476326587,0.5717213199999993,-0.4315513305087557,0.062,0.5122197999999997,-0.4090933842987355,0.09,0.4843172799999994,-0.3854987328494774,0.096,0.35713360000000016,-0.386799882834484,0.162,0.3024208800000002,-0.3677273730958804,0.216,0.16054143999999998,-0.36854270463631206,0.4,beta2
"('Fp2', 'C3')",0.00023999999999999998,-0.37096020661734647,0.37096020661734647,0.5490509200000008,-0.4051677464369674,0.054,0.5013904800000003,-0.38955617511143914,0.078,0.4567282,-0.37920078575785165,0.084,0.3661038000000005,-0.37455261277834995,0.168,0.28944583999999984,-0.3661406461398886,0.224,0.17022112000000003,-0.36111115560852036,0.382,alpha2
"('Fp2', 'C4')",0.00016,-0.3694115648975605,0.3694115648975605,0.54684664,-0.41333077289736375,0.052,0.4961775599999997,-0.3982687827556509,0.072,0.44595347999999996,-0.3895558237239233,0.084,0.33243008,-0.3816381543850079,0.156,0.25336651999999976,-0.3814555922728147,0.262,0.13579136000000003,-0.3766402869843123,0.462,alpha1
"('T6', 'Cz')",0.00076,0.3693903004255962,0.3693903004255962,0.6230374800000005,0.3874990942236841,0.06,0.5625434000000004,0.39701962169070554,0.07,0.5167939199999999,0.38289009584176703,0.092,0.41290148000000004,0.3695945289291443,0.15,0.3350833199999998,0.36302106267854783,0.2,0.2178096,0.3455368828825092,0.34,alpha1
"('Fp1', 'T5')",8e-05,-0.36870156993184733,0.36870156993184733,0.566521,-0.4457158847926047,0.068,0.5142025600000002,-0.42110085115937346,0.082,0.4990453999999999,-0.38029666957882546,0.092,0.3699053600000002,-0.3837343445884623,0.198,0.28053651999999996,-0.38108743339178847,0.25,0.15595667999999996,-0.3665723578986658,0.412,alpha2
"('Fp1', 'Cz')",0.00084,-0.3669506205159754,0.3669506205159754,0.6064110000000003,-0.36068759513641047,0.018,0.53490524,-0.363689446997566,0.044,0.5014132,-0.3449312790591747,0.048,0.39244424000000017,-0.34499624530555434,0.092,0.28793568,-0.3462790102403635,0.146,0.17764780000000008,-0.3415604232919639,0.33,theta
"('O1', 'P4')",0.00056,0.36628102276048974,0.36628102276048974,0.5893306800000002,0.42439836869816916,0.03,0.5267590399999997,0.42179521451859864,0.108,0.4806050399999997,0.40225971430651253,0.108,0.37221499999999996,0.38741744369495645,0.186,0.3429468399999998,0.3545396958580535,0.222,0.20607831999999987,0.35174908013350337,0.348,alpha1
"('T4', 'Cz')",0.00034,-0.36521074959138866,0.36521074959138866,0.6171142799999995,-0.37074538120141276,0.052,0.5460660800000007,-0.380867232004053,0.054,0.5128338400000003,-0.34976367282494414,0.056,0.4040982399999998,-0.3533801464507349,0.144,0.31200475999999994,-0.3546566395236485,0.204,0.1998745599999999,-0.340352682418616,0.316,beta2
"('F8', 'Cz')",0.00022000000000000003,-0.36451166930650486,0.36451166930650486,0.5777989199999999,-0.4176775439253212,0.06,0.5190727999999998,-0.3915218533944819,0.08,0.47707248,-0.3853805678190537,0.102,0.3458561199999999,-0.38991039359138596,0.186,0.26450132,-0.38006280740328485,0.228,0.15105824000000015,-0.370505509922458,0.42,alpha1
"('Fz', 'C3')",2e-05,-0.36445309264312187,0.36445309264312187,0.5180828799999998,-0.4484164933967434,0.044,0.48034443999999993,-0.41549992405693525,0.066,0.4103364800000004,-0.417495573053031,0.108,0.29791644,-0.41396633537534916,0.2,0.21435328000000003,-0.40859253226380704,0.308,0.0945047999999999,-0.4043632268776235,0.518,beta1
"('T3', 'P3')",0.0001,-0.36433233291617495,0.36433233291617495,0.5750218000000004,-0.3984229004146207,0.038,0.4958952799999996,-0.3977245100060128,0.052,0.43487435999999974,-0.3974846458211348,0.104,0.34038948000000024,-0.38277537945397605,0.168,0.2656231600000001,-0.37483659085170146,0.226,0.12660291999999998,-0.3700708984330122,0.446,beta1
"('T4', 'Pz')",0.00174,-0.3639374756272534,0.3639374756272534,0.6221816000000002,-0.3955690316903248,0.056,0.5686322399999992,-0.37083724514296235,0.088,0.5401346800000005,-0.357837812912213,0.094,0.4113013199999998,-0.36602393101457475,0.144,0.35337892000000026,-0.35077329131603047,0.2,0.22262432000000001,-0.3382541477971239,0.316,alpha2
"('Fp2', 'Cz')",2e-05,-0.36356483614707413,0.36356483614707413,0.5248885600000001,-0.4423168524978808,0.074,0.44755111999999997,-0.4379970380173639,0.092,0.3811644800000002,-0.43018554783535423,0.146,0.30257239999999996,-0.3999924221189035,0.19,0.18786132000000003,-0.41961477138037834,0.322,0.09554120000000008,-0.4025119876488418,0.532,beta2
"('F3', 'C3')",0.00114,-0.3612458461997506,0.3612458461997506,0.6266634399999995,-0.34724223556991596,0.028,0.5547430800000002,-0.34432118335840906,0.038,0.49881155999999993,-0.34577682557064726,0.032,0.4194417600000002,-0.3270193223287445,0.064,0.3236935199999999,-0.33448103588770234,0.158,0.18683012000000002,-0.33002594465978585,0.276,alpha1
"('F7', 'T6')",4e-05,-0.3611207571705806,0.3611207571705806,0.5664753200000002,-0.4405038543540846,0.038,0.4998131599999998,-0.426133490158852,0.066,0.45295332000000027,-0.41232108003705625,0.11,0.3452353199999997,-0.40221159752832997,0.17,0.24564595999999997,-0.3960336209775697,0.272,0.12118400000000008,-0.39973472688259276,0.496,beta1
"('T5', 'P3')",8e-05,-0.3604565869168453,0.3604565869168453,0.5624572000000001,-0.40120191982800507,0.034,0.5068707199999998,-0.38461093094231263,0.04,0.44011075999999993,-0.3836186714539379,0.062,0.31681363999999984,-0.381896538890176,0.148,0.2604238,-0.3682764030226774,0.224,0.12145560000000001,-0.37066818525872697,0.44,gamma
"('F3', 'Pz')",0.00042,-0.3598344863380006,0.3598344863380006,0.6383695599999996,-0.38373685306502786,0.036,0.5728015600000003,-0.37397545523094744,0.04,0.5118775200000003,-0.3714434503590152,0.086,0.4088839599999996,-0.3587562610437727,0.104,0.34886380000000045,-0.3483340483267644,0.18,0.18905687999999993,-0.3474877792509862,0.292,beta1
"('Fp2', 'T4')",0.0001,-0.3571418727977712,0.3571418727977712,0.5459041600000001,-0.40873309235010824,0.042,0.4820453600000002,-0.4021592155796326,0.052,0.42648927999999997,-0.39065567818602803,0.088,0.3339925200000003,-0.37981928203039833,0.162,0.2457947200000001,-0.3713368799520364,0.206,0.12631440000000008,-0.3800842222592222,0.476,delta
"('Fp2', 'Cz')",4e-05,-0.35710850427795554,0.35710850427795554,0.48546936000000035,-0.4739744043338991,0.108,0.4180383200000001,-0.4552363174602049,0.122,0.38437119999999986,-0.4325538283552404,0.14,0.2696380800000001,-0.42807618961147287,0.226,0.18506663999999995,-0.42343515891520217,0.338,0.09277556,-0.41428766217034807,0.568,alpha1
"('F4', 'C3')",0.00046,-0.35587149850905464,0.35587149850905464,0.6090002400000006,-0.380547668296749,0.036,0.5305116400000005,-0.3855739210185472,0.058,0.47381532000000015,-0.3794385966257685,0.086,0.38007407999999976,-0.3654209046730108,0.124,0.2714843999999999,-0.37441181376632976,0.226,0.15176355999999983,-0.36149058454637434,0.392,alpha1
"('Fz', 'C4')",0.0001,-0.3557449939746009,0.3557449939746009,0.5297458000000003,-0.44249311341158865,0.032,0.5083618000000001,-0.39347153143966757,0.028,0.4223873999999995,-0.3969972376151194,0.058,0.29476328000000007,-0.4058403902689246,0.136,0.22827072000000012,-0.38948198646878784,0.23,0.10929224000000005,-0.3822657173973292,0.464,beta1
"('F8', 'P3')",0.0007400000000000001,0.35503793752108326,0.35503793752108326,0.6691391999999994,0.3501138424697365,0.028,0.5879223599999998,0.3555954611553801,0.042,0.5563148800000002,0.33845450880657757,0.04,0.45290248,0.33875621082538737,0.09,0.36407863999999973,0.33438820302483446,0.158,0.2333113199999999,0.3239333858555646,0.244,gamma
"('Fp2', 'C4')",0.0001,-0.3541149151937283,0.3541149151937283,0.5570144400000002,-0.40052799741970496,0.03,0.4900909200000003,-0.4015368257863811,0.078,0.42613616000000026,-0.3905971413322991,0.084,0.3186826,-0.38607898080533365,0.15,0.23674547999999998,-0.3802413474857336,0.232,0.1270895600000001,-0.38092161005783104,0.468,delta
"('Fp2', 'C4')",0.0001,-0.35367825287153365,0.35367825287153365,0.5546113599999998,-0.4050217500224864,0.042,0.48207887999999993,-0.4039354165573507,0.076,0.4254160000000001,-0.3950852757877759,0.082,0.32247640000000005,-0.3872246204840487,0.144,0.2375866000000001,-0.3842112306981262,0.252,0.12563659999999996,-0.37814501906130205,0.476,theta
"('T4', 'O2')",0.00106,-0.35355554515255516,0.35355554515255516,0.6576483999999998,-0.35757216495020133,0.044,0.5986737599999998,-0.3514518552294686,0.036,0.5304443200000002,-0.36027762451585277,0.066,0.4401715999999995,-0.3489417426437158,0.102,0.3622088800000003,-0.3385654136362011,0.128,0.2325118799999999,-0.3302869006765919,0.264,gamma
"('T3', 'C3')",0.00212,-0.35293629414362554,0.35293629414362554,0.5740448799999998,-0.4028068803915464,0.024,0.5517376400000003,-0.3708550550079221,0.064,0.5197366400000003,-0.35639092403435757,0.068,0.41148239999999986,-0.3514059713509929,0.12,0.35874844000000006,-0.3436758852192887,0.166,0.22048067999999996,-0.3331752065725413,0.29,alpha1
"('Fp1', 'C4')",0.00016,-0.35148953296582974,0.35148953296582974,0.5750348399999997,-0.3911981660375999,0.028,0.5104179200000001,-0.37968912719227765,0.048,0.46021452000000035,-0.3767426747307515,0.064,0.34025632000000006,-0.36391233250216404,0.098,0.23909684000000045,-0.37888168903714514,0.246,0.13731964000000002,-0.363491830427272,0.4,alpha1
"('Fp1', 'F4')",0.00033999999999999997,-0.34995128279737653,0.34995128279737653,0.5820540800000009,-0.36698456368327653,0.012,0.5135844400000004,-0.37287307400363323,0.03,0.44535144000000026,-0.36788524540924966,0.062,0.3181940000000001,-0.37967019677333214,0.106,0.23075736000000002,-0.37837010398281473,0.21,0.12792744000000006,-0.36566176858049515,0.41,delta
"('Fp2', 'F8')",0.00038,-0.34830537009565343,0.34830537009565343,0.5166434399999998,-0.4402076056895442,0.082,0.4629802399999996,-0.4206401934885605,0.11,0.44254687999999975,-0.39595676991893586,0.112,0.34918168000000005,-0.37607262958342286,0.168,0.2539099600000001,-0.3879094242905586,0.27,0.15147672000000004,-0.3656878811047556,0.388,alpha1
"('Fp2', 'O1')",0.00102,0.3466951384512311,0.3466951384512311,0.6793576400000005,0.36759730218314257,0.044,0.6164409600000003,0.3553389222253966,0.048,0.5322098800000004,0.36777600153092316,0.082,0.44079912,0.3543900864789256,0.126,0.35790391999999993,0.3497391306101718,0.168,0.23359140000000034,0.329888426305426,0.242,gamma
"('Fp1', 'Fp2')",0.0018599999999999999,-0.3466133185498092,0.3466133185498092,0.5542856800000002,-0.41883876509388024,0.082,0.48521120000000006,-0.41866728341672826,0.114,0.44382816000000025,-0.40446044891197425,0.144,0.3835462399999999,-0.38847808535610984,0.206,0.30723480000000014,-0.3897641306947977,0.292,0.23750836000000008,-0.3587491826040124,0.396,alpha1
"('F4', 'O2')",0.0,-0.34595576783510645,0.34595576783510645,0.5431826399999997,-0.45021510600058123,0.056,0.46324608000000006,-0.4468351721328832,0.1,0.41030659999999997,-0.429631101808098,0.136,0.2743490000000001,-0.4348264520864172,0.26,0.22434728000000007,-0.40276666599707495,0.324,0.09728632000000001,-0.40504566153523186,0.56,alpha2
"('F7', 'C4')",0.00092,0.34507083711594283,0.34507083711594283,0.6495993600000001,0.36374987716924057,0.038,0.5795647600000005,0.3656314653463817,0.056,0.5263285200000001,0.3617171711523441,0.07,0.42764544000000027,0.3503717670567337,0.12,0.3350221599999996,0.3520865016813766,0.19,0.2251869999999999,0.33177158767404874,0.284,gamma
"('F7', 'F3')",0.00042,-0.34349770449614336,0.34349770449614336,0.5694014399999998,-0.37620734583131,0.026,0.5255515199999998,-0.3589187051949848,0.048,0.4826723200000005,-0.34852279879708464,0.046,0.3701539200000001,-0.35008570771535547,0.108,0.2771152,-0.35114645219697666,0.16,0.16024348,-0.3477820108948597,0.328,delta
"('O1', 'Pz')",0.00288,0.3433107693822111,0.3433107693822111,0.6763225199999999,0.3510510241941517,0.036,0.5896431600000005,0.3568522116289076,0.058,0.5502733600000002,0.3466577724473354,0.072,0.4504141600000003,0.3382347300516636,0.108,0.3860990400000002,0.32771626408943344,0.164,0.2742816000000003,0.30805542366988325,0.234,alpha1
"('F8', 'P3')",0.0009400000000000001,-0.3425387398860997,0.3425387398860997,0.64919044,-0.3621762561791842,0.032,0.6126755200000004,-0.343219804656616,0.05,0.5600673999999999,-0.33589447912864245,0.072,0.42225127999999995,-0.34766449063261007,0.126,0.37978207999999997,-0.3236794318965648,0.122,0.2240104399999999,-0.3333368016711226,0.29,alpha2
"('T3', 'O2')",4e-05,-0.3425329448366624,0.3425329448366624,0.5915722400000004,-0.4065823708229632,0.044,0.5234445199999996,-0.3976214012693438,0.052,0.4665378800000001,-0.38522298586805725,0.082,0.31923560000000056,-0.40030877163456263,0.174,0.2491342399999999,-0.38395166220799215,0.248,0.13161547999999995,-0.3763995091650739,0.45,alpha2
"('T6', 'O2')",0.0001,-0.3416699665632282,0.3416699665632282,0.5489487200000002,-0.41174372356782185,0.016,0.49823020000000007,-0.3946460399786956,0.034,0.42777648,-0.3956149766283159,0.068,0.3163383600000001,-0.39275419129405226,0.16,0.23937059999999985,-0.3775368090032465,0.238,0.11688652000000008,-0.37954280978925437,0.474,beta1
"('T6', 'C3')",0.00194,-0.34152316370557656,0.34152316370557656,0.6722154800000002,-0.3602220542555454,0.046,0.6264428000000006,-0.34757897306014335,0.064,0.5691222799999995,-0.3471671111917612,0.082,0.44039896,-0.35136037067178016,0.1,0.40953036000000015,-0.3263590399299991,0.154,0.26103812000000026,-0.3290691628708864,0.286,alpha2
"('F3', 'T3')",0.00034,-0.34138367428230715,0.34138367428230715,0.5170499599999994,-0.46121630246674095,0.078,0.48299747999999937,-0.4403635255389522,0.128,0.4586760000000002,-0.41232418305591884,0.166,0.36899904,-0.40280813432445367,0.236,0.3021981600000001,-0.3856744973698869,0.266,0.18970668000000016,-0.3721228052846935,0.372,delta
"('T4', 'Cz')",0.00011999999999999999,-0.34065028385634594,0.34065028385634594,0.6111844400000007,-0.3734287127074953,0.02,0.5108085599999999,-0.38384191858897776,0.062,0.46122431999999974,-0.37607314797397345,0.052,0.3573124000000002,-0.37536780410697496,0.126,0.2726492399999999,-0.36518470822987165,0.192,0.14380843999999998,-0.3665967538376013,0.382,beta1
"('Fp2', 'T4')",0.00064,-0.3405419025266545,0.3405419025266545,0.5978438000000003,-0.37096370240096754,0.026,0.5357490799999997,-0.371940814806539,0.048,0.47763167999999984,-0.3567744607176607,0.056,0.37524895999999996,-0.35178003209113873,0.11,0.29666279999999956,-0.35169484572869486,0.192,0.1669480799999999,-0.341284974633037,0.31,alpha1
"('O2', 'P3')",0.0,0.34024120486641074,0.34024120486641074,0.5056459200000001,0.4936873508641967,0.094,0.4419150399999999,0.4724328219901189,0.144,0.37455024000000003,0.4603041427756769,0.184,0.26557688,0.4549128284713896,0.29,0.19826407999999981,0.43318052180321126,0.36,0.09935492000000005,0.42141560482671275,0.592,beta2
"('T6', 'P4')",0.00148,-0.33883429268757814,0.33883429268757814,0.6151951199999997,-0.38919006128785294,0.03,0.57492744,-0.3579614960206008,0.042,0.5202513999999995,-0.3543342787891357,0.056,0.4107173999999997,-0.3498397714367682,0.08,0.35984868000000003,-0.32868359624219146,0.134,0.2113028399999999,-0.32615863726620054,0.234,beta2
"('Fp1', 'Cz')",0.0001,-0.3384848690874854,0.3384848690874854,0.5599758000000001,-0.40328365209226086,0.044,0.4789893599999999,-0.40456262922303393,0.082,0.4470514799999999,-0.3873445116686534,0.078,0.31509164000000006,-0.3960110278608002,0.164,0.24077916000000002,-0.38212694362453353,0.208,0.14662916000000006,-0.36769188899671923,0.416,delta
"('F3', 'Pz')",0.0016600000000000002,-0.33745598641163493,0.33745598641163493,0.6858872399999996,-0.3257750511173677,0.02,0.59819992,-0.3481435969223901,0.038,0.5632773200000002,-0.3293854300759655,0.046,0.48079596000000013,-0.31848366650351806,0.076,0.40612632000000015,-0.3121911434199454,0.114,0.23032332000000005,-0.32165486804589105,0.244,delta
"('Fz', 'T4')",0.00030000000000000003,-0.3368799685965064,0.3368799685965064,0.6094858000000003,-0.38083893528682283,0.042,0.5239540800000003,-0.3867011055143628,0.056,0.4796295600000006,-0.36754312084708096,0.064,0.3856618800000001,-0.36615775727408245,0.118,0.30610648000000046,-0.3624533878586274,0.2,0.1819467199999999,-0.35070299718551273,0.344,beta1
"('F8', 'Cz')",0.00030000000000000003,-0.33655704239132356,0.33655704239132356,0.5967990000000007,-0.41373171724867613,0.054,0.5525291600000002,-0.3912803428911864,0.064,0.49827739999999987,-0.38134894195677954,0.092,0.3678907200000002,-0.3854723912253721,0.16,0.30537491999999994,-0.37164077329339806,0.206,0.17529067999999998,-0.3649943228870657,0.4,beta1
"('T3', 'C4')",8e-05,-0.33645171949219205,0.33645171949219205,0.56753228,-0.4285122056836277,0.06,0.5193425600000005,-0.4097124168656899,0.086,0.4679897199999999,-0.4063242012989803,0.128,0.3752170399999999,-0.3782365054479464,0.168,0.2808869199999998,-0.3764459008817637,0.262,0.1558835599999997,-0.3762324696646242,0.428,alpha2
"('P3', 'P4')",0.00132,0.3362401247485495,0.3362401247485495,0.6175070000000001,0.38198483503480757,0.028,0.5393052800000002,0.3807807815687327,0.056,0.5021499600000003,0.3717846540635066,0.074,0.39172643999999995,0.3618221942993416,0.108,0.36047452000000013,0.3384488178625977,0.15,0.22043396000000007,0.33008826573837047,0.272,alpha1
"('O1', 'Cz')",0.00088,0.33602623058792147,0.33602623058792147,0.6703311600000003,0.3575862389554483,0.026,0.6056866399999994,0.3370759761534814,0.034,0.54140844,0.34138196070741206,0.06,0.4256633200000004,0.3503341551664623,0.118,0.3414361200000002,0.3458600521699797,0.156,0.24092551999999987,0.32847459808451385,0.27,beta2
"('T6', 'O1')",8e-05,0.3358861203859521,0.3358861203859521,0.5718766400000004,0.4445670060489251,0.076,0.5075614399999998,0.43090394674924537,0.088,0.4299966400000001,0.4311828480542157,0.148,0.33685116,0.4097215159540981,0.208,0.2624714000000001,0.3984250228369811,0.27,0.13823139999999998,0.3846400767183904,0.48,alpha1
"('F3', 'Fz')",0.001,-0.33585556043570824,0.33585556043570824,0.6434095200000003,-0.3377269613185355,0.016,0.5634111999999999,-0.35583078826068887,0.036,0.5200314800000002,-0.34911076630269205,0.066,0.42362347999999994,-0.34066565046046093,0.102,0.34913451999999984,-0.3300289661292566,0.146,0.20388824000000022,-0.3291020380559962,0.266,delta
"('F4', 'T4')",0.0010600000000000002,-0.33405097644231013,0.33405097644231013,0.62109532,-0.3598139961060942,0.034,0.5945861600000003,-0.324818073769536,0.034,0.5318357999999997,-0.3365349323604126,0.046,0.45370331999999997,-0.3178749987282255,0.062,0.35076448000000016,-0.32296261198767745,0.09,0.20580095999999987,-0.3271184573348972,0.232,delta
"('O1', 'C4')",0.0006000000000000001,0.3335472061135315,0.3335472061135315,0.6452527600000005,0.379076809030086,0.038,0.5842312800000002,0.3572491701700918,0.05,0.5486316400000003,0.3463978999906738,0.054,0.43897231999999997,0.34340235186307466,0.1,0.34472344000000027,0.3421336591221289,0.144,0.22692436000000002,0.33421265028545305,0.284,beta2
"('T4', 'T6')",0.00126,-0.3329838823868105,0.3329838823868105,0.6493657600000005,-0.35869098527779364,0.018,0.6061756400000007,-0.3300748341088384,0.032,0.5426339199999999,-0.337386666421423,0.034,0.4529309199999999,-0.329594359228201,0.082,0.3717244800000001,-0.32541738931988495,0.116,0.2397134000000001,-0.31677850741191677,0.198,beta1
"('T3', 'C3')",0.00026000000000000003,-0.33234913421667384,0.33234913421667384,0.5743062800000003,-0.4160809103972312,0.058,0.5132537200000002,-0.39732435422925927,0.074,0.45166052000000023,-0.3978742155748081,0.104,0.37590368000000024,-0.37966684580209176,0.176,0.3051925999999998,-0.3686290996198064,0.234,0.16323439999999984,-0.36386434493093534,0.38,beta1
"('F3', 'F4')",0.00234,-0.3314013590031414,0.3314013590031414,0.6493737200000002,-0.3521102639992978,0.038,0.5771110399999995,-0.3572738744305909,0.038,0.5472173600000001,-0.3432549819167899,0.058,0.4694521599999999,-0.3296266375256038,0.092,0.3917945600000002,-0.3256390367723091,0.144,0.2400873199999998,-0.32789175879343435,0.244,theta
"('F7', 'T4')",0.0024,-0.33122936675972253,0.33122936675972253,0.6819329999999992,-0.33067829408010574,0.014,0.6330935599999996,-0.32670020342263123,0.03,0.5951101999999999,-0.3183963195302114,0.038,0.47904708,-0.3233320297202158,0.082,0.39816271999999986,-0.3149328528392598,0.11,0.2879299600000003,-0.3041206227595525,0.192,alpha2
"('Fz', 'T3')",0.00088,-0.330863579461333,0.330863579461333,0.6121525600000005,-0.36423878891898176,0.012,0.5685431199999998,-0.3526536436660749,0.03,0.5187902400000003,-0.34295077083428643,0.054,0.4263333199999999,-0.3379220869753594,0.1,0.3384645999999996,-0.33640976460786015,0.144,0.21270760000000002,-0.32638220965039705,0.258,delta
"('T4', 'T6')",0.00033999999999999997,-0.3296123079917326,0.3296123079917326,0.6393957199999999,-0.35295345460220806,0.02,0.5820280800000004,-0.3393405613815437,0.026,0.5042576000000003,-0.3568692745465605,0.072,0.38295108,-0.36084148407195776,0.108,0.32232584000000003,-0.3406532338716154,0.146,0.19341859999999989,-0.33515366024834703,0.278,beta2
"('Fp2', 'Pz')",0.006320000000000001,-0.32923334282564476,0.32923334282564476,0.66911876,-0.3446998125529384,0.034,0.6370463999999989,-0.3297720055148566,0.052,0.5855204400000005,-0.3272668845504326,0.068,0.5103924799999997,-0.3078127063545384,0.082,0.4643219199999999,-0.2950804788044667,0.096,0.3350417200000003,-0.28585485348372197,0.18,alpha2
"('F3', 'F8')",0.00258,-0.32873798915011115,0.32873798915011115,0.6788164400000002,-0.33602129466788344,0.02,0.6139118399999998,-0.3330849619500015,0.038,0.5709036399999995,-0.3308175950646177,0.04,0.45652692,-0.32951909484486225,0.082,0.3964482799999998,-0.3204431896521283,0.114,0.24610319999999983,-0.32332242135454936,0.264,beta1
"('O1', 'O2')",0.00058,0.32757602415310577,0.32757602415310577,0.6243726000000005,0.3772235842160747,0.028,0.58186632,0.3701425374662259,0.044,0.5046778400000005,0.37022731755274074,0.076,0.42398628000000044,0.3564534996998454,0.128,0.3346218000000002,0.3509777231200706,0.18,0.20258804,0.33951345883924766,0.3,beta1
"('T4', 'O2')",0.00022000000000000003,-0.32654477745825494,0.32654477745825494,0.6062680399999999,-0.4225151157504315,0.064,0.54740744,-0.4141443908837154,0.102,0.48518568000000023,-0.41265300464949534,0.142,0.37169284000000047,-0.4085532381982755,0.212,0.3307131200000001,-0.36912135084858605,0.212,0.19374944000000002,-0.3652568397844867,0.364,beta2
"('F8', 'T4')",0.00312,-0.32637313348472,0.32637313348472,0.6657736800000003,-0.3140696068756735,0.022,0.6321770799999997,-0.2964857955427846,0.026,0.5532493200000003,-0.3194514169772668,0.046,0.4501797199999999,-0.32253849556744574,0.088,0.37712887999999983,-0.3108991673233299,0.094,0.2571368800000002,-0.3046809239276198,0.198,gamma
"('T4', 'P4')",0.00011999999999999999,-0.3253832038425875,0.3253832038425875,0.5459045199999998,-0.4539181523602451,0.076,0.48309311999999976,-0.43652703450467967,0.1,0.4320536,-0.41709406485518397,0.11,0.3327071199999999,-0.4046885633336345,0.19,0.2700265999999997,-0.3960028545609494,0.306,0.15456479999999997,-0.37805223734707716,0.414,beta1
"('O1', 'C3')",0.0018400000000000003,0.3228017727660789,0.3228017727660789,0.6340879999999999,0.3654262723352747,0.036,0.5859709599999999,0.3539927045900468,0.038,0.5522936399999998,0.33695354680781997,0.056,0.43984784000000016,0.33854803724504645,0.086,0.37344492000000007,0.32791718680362486,0.142,0.2464498,0.3175114445014063,0.24,alpha1
"('Fz', 'C3')",0.0028,-0.321960320408404,0.321960320408404,0.6441551600000007,-0.3488250694726901,0.012,0.6141260799999997,-0.3306036530640076,0.014,0.5340169600000002,-0.3343938844383274,0.042,0.45879056000000007,-0.3177065073314139,0.07,0.37372832000000006,-0.3161727329359113,0.102,0.24911284,-0.30681343774752873,0.17,delta
"('O2', 'Pz')",0.0007400000000000001,0.3216268659421883,0.3216268659421883,0.6510645599999993,0.3713147230314731,0.038,0.5917195199999999,0.35009165038151946,0.054,0.5395220400000003,0.34978567059976434,0.062,0.42814880000000016,0.35415338389686957,0.114,0.34533260000000005,0.34359484456136313,0.158,0.24331340000000024,0.32466748321356403,0.228,beta2
"('F3', 'C4')",0.0011,-0.3201897326849129,0.3201897326849129,0.6530370800000004,-0.33618165587739274,0.026,0.5806342800000006,-0.3500647041197935,0.046,0.51828192,-0.349606099596057,0.052,0.4665626400000003,-0.31683706328475914,0.062,0.3675224000000001,-0.32249795514160307,0.11,0.21711560000000005,-0.32993207433448285,0.284,theta
"('T4', 'C3')",0.0052,-0.31981435662782143,0.31981435662782143,0.7044278799999999,-0.31037941901697147,0.012,0.6558734400000005,-0.3085575505314695,0.026,0.5978692799999995,-0.3088612907214861,0.038,0.521246,-0.29716774049926115,0.058,0.44771267999999986,-0.2995948145583089,0.108,0.3118258400000001,-0.29011196654541277,0.182,alpha2
"('T6', 'P4')",0.00042,-0.31915274156327084,0.31915274156327084,0.5685946000000003,-0.42559489930447564,0.038,0.5424243200000005,-0.38603918633959716,0.054,0.4918550800000002,-0.37182300668085394,0.064,0.3612843599999994,-0.3767830260561449,0.154,0.30956543999999997,-0.3538953838398776,0.184,0.16274292000000015,-0.3506032745161376,0.338,gamma
"('Fp1', 'T3')",0.00042,-0.31887384710883676,0.31887384710883676,0.6025776800000013,-0.39000516775494914,0.052,0.55838788,-0.3634098744166422,0.042,0.46904564000000015,-0.37612725284041953,0.066,0.3862166799999997,-0.36084559512579045,0.116,0.3404517200000001,-0.3404188983721257,0.128,0.19494143999999997,-0.3454667086885428,0.336,beta1
"('Fp1', 'C4')",0.0010400000000000001,-0.31868928364446436,0.31868928364446436,0.6269813199999994,-0.3623774980973443,0.034,0.5549656399999999,-0.3647177027908766,0.052,0.5213345200000002,-0.3612459705153846,0.064,0.41513771999999977,-0.34421114892948834,0.118,0.3342401199999999,-0.341092947255059,0.182,0.2327655599999999,-0.32850546030139094,0.292,delta
"('Fp1', 'Fp2')",0.00054,-0.31671292406337903,0.31671292406337903,0.6158667200000003,-0.35509391073531094,0.03,0.5420584000000004,-0.358854827844513,0.054,0.4758180800000001,-0.35767547299858726,0.06,0.40980868000000026,-0.3351113113267339,0.098,0.31639635999999977,-0.33906785676880774,0.146,0.19828079999999998,-0.3313495094255033,0.266,beta1
"('T5', 'T6')",0.00272,0.3161698766664508,0.3161698766664508,0.6896060799999999,0.34873088375097433,0.03,0.6315983999999998,0.3395569028515668,0.054,0.5751879200000001,0.3407560928558408,0.072,0.4864612400000005,0.33066497122512617,0.084,0.39341672,0.3263972682971748,0.138,0.26654840000000013,0.3157109084647841,0.22,alpha1
"('P3', 'P4')",0.004440000000000001,-0.3159124349281105,0.3159124349281105,0.6413098000000004,-0.35444753948725094,0.034,0.6205936,-0.340376313559649,0.052,0.57625512,-0.32176762157941186,0.05,0.49457256,-0.3186524979641971,0.096,0.3984259999999997,-0.31902648419709345,0.128,0.2741326400000002,-0.31065634223816857,0.246,alpha2
"('F3', 'C4')",0.0014,-0.3157282560242017,0.3157282560242017,0.6384794000000004,-0.3525074780110823,0.024,0.58528232,-0.34579351163507316,0.038,0.5309994,-0.33865957640774835,0.042,0.4378839599999998,-0.33137776765651106,0.06,0.33842179999999994,-0.3331576748981944,0.112,0.20430772,-0.3290307488981527,0.258,alpha1
"('Fz', 'T3')",0.0086,-0.3153798017633993,0.3153798017633993,0.6539714799999999,-0.327830464789827,0.036,0.6192454399999998,-0.32206769910766186,0.036,0.5915580799999998,-0.31348327121875613,0.05,0.5420517999999993,-0.28634108552095466,0.058,0.4349399999999997,-0.2979744015405452,0.126,0.3122777999999999,-0.29553089021672774,0.17,theta
"('O2', 'Cz')",0.0007,0.315184963660203,0.315184963660203,0.6131749600000008,0.40722535836969076,0.056,0.5856074799999997,0.37862290190456366,0.076,0.5139964800000002,0.3743987758547993,0.07,0.4255360399999998,0.36790273603426754,0.13,0.3676196000000002,0.34346559115999065,0.182,0.2537444399999999,0.3342056410013495,0.268,beta1
"('F8', 'C4')",0.00088,-0.31440445542570294,0.31440445542570294,0.6369044799999997,-0.36061039896377367,0.026,0.5832694799999999,-0.3410331803612648,0.03,0.5018663999999998,-0.35391793516422765,0.05,0.41027475999999985,-0.3428780165889728,0.094,0.33013244000000025,-0.3450368455217785,0.162,0.19935587999999996,-0.3369953295733652,0.284,beta2
"('T6', 'O1')",0.0019800000000000004,-0.31424291125723347,0.31424291125723347,0.6316748799999999,-0.3913650517521829,0.064,0.6026784,-0.36740898806150696,0.072,0.55886952,-0.3484130300302994,0.084,0.43581720000000035,-0.3529100580242382,0.116,0.3681115599999999,-0.3424678379000317,0.166,0.25030396000000027,-0.32598401522067066,0.28,alpha2
"('T3', 'P4')",0.00066,-0.3137578609379032,0.3137578609379032,0.6489195999999999,-0.3573510274666914,0.022,0.5825243999999999,-0.36511736456147775,0.056,0.5215039600000002,-0.3589999167476723,0.066,0.4102285200000002,-0.3525261620450725,0.118,0.3407791599999998,-0.3383094221166504,0.178,0.2017043999999999,-0.339464458094057,0.318,alpha2
"('O1', 'P3')",0.00058,-0.3134357118867846,0.3134357118867846,0.6145965600000002,-0.3605386224809241,0.016,0.56182312,-0.35480378084132264,0.024,0.5059643599999997,-0.3469804289176215,0.042,0.3687191199999996,-0.35775344548523585,0.09,0.3276310000000003,-0.3354557618840011,0.158,0.17071008000000004,-0.34078048309057174,0.324,gamma
"('C3', 'Pz')",0.0009,-0.3133816228305243,0.3133816228305243,0.6376265599999997,-0.366469962248046,0.018,0.589104,-0.3403258778103547,0.022,0.5272349999999998,-0.3446394430551794,0.04,0.4376045199999997,-0.3305563344214136,0.054,0.3311454799999999,-0.3357628674418078,0.122,0.19277499999999975,-0.3329434480703268,0.278,beta1
"('O2', 'P4')",0.027100000000000003,-0.31273114898208165,0.31273114898208165,0.7057797199999999,-0.3186267492992859,0.028,0.6784354800000008,-0.2988468744825625,0.03,0.6491244800000001,-0.2869456413085991,0.032,0.5538485999999998,-0.2909672276121481,0.064,0.5069583200000001,-0.27904098672706157,0.094,0.3708169999999999,-0.27230546991960025,0.136,alpha2
"('T4', 'P4')",0.00474,-0.31268731007216116,0.31268731007216116,0.6875264000000001,-0.3132920779336644,0.02,0.6031326000000001,-0.3363689285424815,0.028,0.5776645199999997,-0.3093840119987322,0.02,0.48257624000000005,-0.3111512174483805,0.066,0.3929007200000003,-0.30788917032485225,0.088,0.27405000000000007,-0.3023918181969857,0.196,theta
"('F3', 'C4')",0.00028000000000000003,-0.31232869346175673,0.31232869346175673,0.6178800399999993,-0.3762465205208594,0.014,0.5676592399999998,-0.3602244458808604,0.026,0.49411168000000033,-0.36195516737091515,0.044,0.38259239999999983,-0.3636661809678098,0.108,0.31536752000000007,-0.3513778744183574,0.168,0.17017935999999995,-0.3511568084772514,0.346,beta1
"('Fp1', 'Fp2')",0.00216,-0.3122350798016578,0.3122350798016578,0.6200807600000006,-0.3460405725964778,0.024,0.5676495599999994,-0.33446552289749865,0.046,0.51442716,-0.3307399777196663,0.052,0.44975023999999997,-0.31399009346562823,0.09,0.36028615999999986,-0.31599705735536787,0.132,0.22596587999999992,-0.3119235532487926,0.208,gamma
"('F3', 'O1')",0.00216,-0.31147617561864843,0.31147617561864843,0.66391548,-0.35712835002680765,0.032,0.6261857200000004,-0.3397177103138262,0.034,0.5948169200000001,-0.31305170774172514,0.052,0.4934043599999998,-0.3173421674948161,0.064,0.40560591999999995,-0.3141792907561629,0.116,0.26846571999999974,-0.3090830084167571,0.224,alpha2
"('F8', 'T4')",0.00642,-0.3114059936903974,0.3114059936903974,0.7041569999999999,-0.2867723939435291,0.004,0.62331848,-0.3057876861018155,0.01,0.5761321199999999,-0.2988506118812864,0.016,0.5124542800000002,-0.28853711793067904,0.034,0.4450476800000002,-0.2829509663116995,0.052,0.28473980000000004,-0.2897427423441592,0.148,theta
"('Fp1', 'P3')",0.013900000000000001,-0.3111373563105053,0.3111373563105053,0.7232139600000003,-0.2872346035636484,0.016,0.6749057200000002,-0.29330458331134346,0.02,0.6518280799999997,-0.2807704104007293,0.02,0.55884452,-0.2787135216829154,0.044,0.4895179600000002,-0.27542339899083007,0.058,0.35399087999999995,-0.27530647218857945,0.098,theta
"('T5', 'Cz')",0.0024200000000000003,0.31014723237852304,0.31014723237852304,0.68686508,0.3373671242546611,0.026,0.6223473200000005,0.3401831538679498,0.038,0.5691327600000001,0.33696634889844485,0.044,0.4740528400000002,0.3343297443212569,0.098,0.40180568,0.32329755745634453,0.16,0.28275639999999974,0.3080436329500459,0.202,alpha1
"('Fp1', 'C4')",0.0025599999999999998,-0.30982981438025303,0.30982981438025303,0.6599942,-0.327369157862448,0.024,0.6186436000000007,-0.31086281363320395,0.034,0.5476511600000004,-0.33051095783071094,0.062,0.47300411999999986,-0.30712730481652395,0.072,0.37511764000000003,-0.3144337588070046,0.112,0.26588600000000007,-0.30332449128340044,0.214,alpha2
"('F8', 'T4')",0.0035,-0.3097252540695207,0.3097252540695207,0.6453202000000001,-0.3381729348848792,0.022,0.5984775999999999,-0.32537666147129707,0.024,0.53939592,-0.32792324760835884,0.028,0.4752553600000002,-0.30758664371219957,0.046,0.40245803999999974,-0.30901909229473207,0.114,0.2588975600000002,-0.30768897061887857,0.222,alpha1
"('F7', 'C3')",0.0035,-0.3096974915585218,0.3096974915585218,0.6896084799999993,-0.3082667369342385,0.01,0.6239576800000001,-0.31438303064253725,0.014,0.59188192,-0.29765817052264887,0.018,0.4851883599999996,-0.30626721468666873,0.058,0.3990797599999998,-0.3011259102876612,0.094,0.2598777200000001,-0.30331308757589287,0.17,beta2
"('Cz', 'C4')",0.010920000000000001,-0.307687486166636,0.307687486166636,0.5746184799999997,-0.41456226119362677,0.058,0.5718691199999998,-0.36037193990631555,0.042,0.5115232399999998,-0.36445032820667833,0.088,0.41377568,-0.3629916410368867,0.138,0.3934942400000002,-0.3458940892528497,0.17,0.28377056,-0.336616671239956,0.308,beta1
"('F8', 'C3')",0.00176,-0.30596097172110304,0.30596097172110304,0.6483877200000002,-0.36849153257513045,0.048,0.61354732,-0.3449656589188919,0.042,0.5628394400000005,-0.3396761413931629,0.058,0.4430292400000001,-0.34894783100234883,0.122,0.3628800000000002,-0.3342958981832087,0.152,0.23571948000000006,-0.32986508321828595,0.26,alpha1
"('T6', 'Pz')",0.0015400000000000001,0.30525619336749055,0.30525619336749055,0.6490142799999997,0.35835842580254695,0.032,0.6079123600000006,0.3404524696289888,0.05,0.57940296,0.32810964960877076,0.042,0.46403971999999977,0.32860751720418807,0.074,0.3814065600000003,0.31889555149708343,0.102,0.26492935999999995,0.3160975753665621,0.214,beta1
"('F4', 'C4')",0.00056,-0.3051726048391332,0.3051726048391332,0.5971521199999994,-0.372883533448933,0.038,0.5264333599999996,-0.36508595878302674,0.056,0.45874679999999995,-0.366156586522501,0.104,0.3874672799999999,-0.35144236920335903,0.114,0.28053819999999985,-0.3560234272450896,0.214,0.15737359999999992,-0.34847416516832874,0.348,alpha1
"('T5', 'T6')",0.00054,-0.30516828620462816,0.30516828620462816,0.6250105199999997,-0.40016381194320017,0.054,0.5551596400000001,-0.3903216315106663,0.068,0.5176656800000001,-0.3831671001231051,0.098,0.41262659999999984,-0.3711537986367841,0.14,0.3514835199999999,-0.35279398794832206,0.2,0.20539427999999998,-0.34349351485444346,0.34,alpha2
"('Fp2', 'Fz')",0.00036,-0.3049444756149631,0.3049444756149631,0.5623563999999998,-0.3697737840924632,0.016,0.48399716000000015,-0.3836702979085967,0.032,0.44088552000000025,-0.37144755272235974,0.056,0.34035392,-0.36365348933081376,0.116,0.25916020000000006,-0.3671047940702829,0.228,0.16161095999999997,-0.3527866761554057,0.392,delta
"('F7', 'C3')",0.006180000000000001,-0.3046287494529634,0.3046287494529634,0.6579946000000001,-0.3489127387045318,0.038,0.61057832,-0.33831797953727666,0.044,0.5812240399999998,-0.32710877943246147,0.07,0.49872543999999946,-0.3146007537251097,0.112,0.4362857599999998,-0.3085044839123191,0.118,0.2869948800000004,-0.30465561007517133,0.19,delta
"('Fp2', 'T3')",0.00472,-0.3044932751605176,0.3044932751605176,0.63929136,-0.3506307097770219,0.032,0.6204311599999995,-0.3313371724198991,0.044,0.5884692799999993,-0.31313795185721804,0.052,0.49535168000000046,-0.31732711207784,0.076,0.42203444000000034,-0.30171533506144743,0.112,0.3084534800000001,-0.29284415324424556,0.204,alpha2
"('F8', 'T5')",0.00986,-0.3043223525079065,0.3043223525079065,0.7090463599999989,-0.3184494840445086,0.024,0.6703829200000002,-0.31754883937154915,0.046,0.6175123199999999,-0.31071273373100594,0.058,0.5664573600000007,-0.29357220954497537,0.066,0.5077888399999999,-0.281508850981775,0.084,0.35076531999999994,-0.28342432820931646,0.156,alpha1
"('F3', 'Cz')",0.00164,-0.30414426534681216,0.30414426534681216,0.6372101200000001,-0.3530740897766407,0.014,0.5536113999999999,-0.3640415212634621,0.038,0.50790432,-0.35048251905454286,0.036,0.4082281200000007,-0.34422530657516204,0.066,0.3307639999999998,-0.3354994657386611,0.116,0.1910591199999998,-0.3344471802874138,0.254,delta
"('O1', 'P3')",0.0034400000000000003,-0.30294798526092015,0.30294798526092015,0.64096696,-0.34111034144636215,0.014,0.6006275199999999,-0.3221079103217217,0.012,0.5721302400000002,-0.31549936870636786,0.026,0.45873204000000006,-0.31865701978666583,0.06,0.4260808400000001,-0.29646705657106137,0.104,0.2708253600000004,-0.3062891776718699,0.208,beta2
"('Fp2', 'F8')",0.00398,-0.30285898376749093,0.30285898376749093,0.6241493199999997,-0.3275142223626393,0.016,0.5927522800000002,-0.30597896843045114,0.016,0.5252844800000005,-0.3075749702634056,0.032,0.45687364000000014,-0.2974772349635398,0.046,0.3837008800000001,-0.2972746593209723,0.096,0.24348295999999997,-0.2974026530363461,0.162,gamma
"('T4', 'T5')",0.00254,-0.3026526790258384,0.3026526790258384,0.6955401199999995,-0.3246788755324385,0.02,0.6245669200000007,-0.3394072304607288,0.026,0.5755981600000006,-0.3283097755633912,0.052,0.4725088399999994,-0.3287713468062885,0.098,0.40325592,-0.3168783967207599,0.132,0.2784221600000001,-0.30749776343786395,0.214,alpha2
"('Fp2', 'C4')",0.0029400000000000003,-0.30245427928602886,0.30245427928602886,0.6287960000000001,-0.34801575434953724,0.038,0.59510912,-0.33203106984961955,0.048,0.5322444400000004,-0.33043353841778816,0.076,0.4632956,-0.3165178024059534,0.084,0.38200448000000004,-0.3201141458120095,0.118,0.25792955999999984,-0.310632977228752,0.224,alpha2
"('F8', 'C4')",0.00828,-0.30234393376342467,0.30234393376342467,0.6734641599999996,-0.3350986571735012,0.032,0.6382443600000002,-0.31454644862966574,0.04,0.5836635599999999,-0.3154533850410285,0.054,0.5238504400000001,-0.2970019400519066,0.06,0.44451272000000036,-0.29734233465778975,0.09,0.31981520000000013,-0.2833912518814796,0.144,alpha2
"('Fz', 'T3')",0.0020800000000000003,-0.30204174364122977,0.30204174364122977,0.6462888399999998,-0.354136160368694,0.036,0.6151718800000008,-0.3308498020428934,0.03,0.5299802000000002,-0.34612057151879966,0.046,0.4589636399999997,-0.3208386769079763,0.066,0.37928743999999975,-0.3171779148440466,0.102,0.24151924000000005,-0.3188681513450728,0.226,beta1
"('T6', 'C4')",0.00442,-0.3015285863819674,0.3015285863819674,0.6545412000000004,-0.3611827967058565,0.03,0.6280901199999998,-0.3318801375150297,0.034,0.5829893600000001,-0.32684536703923567,0.062,0.48145932,-0.3291022050602224,0.104,0.4442147600000007,-0.3071748764804906,0.118,0.27655524,-0.3080499612348583,0.21,gamma
"('Fp2', 'T4')",0.0026,-0.3014079129373005,0.3014079129373005,0.6405881199999997,-0.3365571300617973,0.028,0.5806204000000003,-0.3316425753741761,0.03,0.5400760400000003,-0.32624137042287354,0.058,0.44175875999999975,-0.32213082166027784,0.104,0.37035767999999997,-0.3160459208157792,0.108,0.25895299999999993,-0.3030047687817848,0.204,alpha2
"('Fz', 'Pz')",0.005280000000000001,-0.30104228910554126,0.30104228910554126,0.6893536800000003,-0.31336682993097265,0.012,0.6604533200000001,-0.30513974904855534,0.02,0.6206388399999998,-0.29180179534501316,0.042,0.5294544399999997,-0.2905843157419641,0.044,0.44181119999999957,-0.29185678456076936,0.076,0.28746052000000016,-0.2982037689125113,0.172,beta1
"('F4', 'P3')",0.032580000000000005,-0.29858093661042234,0.29858093661042234,0.7397002399999999,-0.27162009644051555,0.02,0.7210276800000005,-0.2519762101398604,0.016,0.6724360400000002,-0.25683181630647056,0.034,0.6260352800000005,-0.2493442727574891,0.032,0.5705888000000005,-0.24468134762438065,0.046,0.40500927999999964,-0.2554068506068893,0.08,alpha2
"('O2', 'P4')",0.00164,-0.29793956811999533,0.29793956811999533,0.6300210399999999,-0.3683907036287603,0.02,0.6011616000000003,-0.3337237136680274,0.024,0.5535196400000004,-0.3277491783347487,0.018,0.44905792000000005,-0.32885592159913196,0.038,0.38208755999999977,-0.31477439628232906,0.068,0.20005648000000004,-0.3290751022575796,0.234,beta2
"('F8', 'C3')",0.0034800000000000005,-0.29744282457026705,0.29744282457026705,0.6557770400000005,-0.34910203277872326,0.03,0.6419346800000004,-0.32815994158421646,0.038,0.5742419999999996,-0.32914724528702055,0.06,0.4852122799999995,-0.32508655081244814,0.11,0.4160903999999999,-0.31459545323374005,0.114,0.2821147199999999,-0.30924115609895675,0.238,alpha2
"('Fp1', 'F8')",0.00456,-0.29620074257524326,0.29620074257524326,0.6582100800000003,-0.33296799684364886,0.028,0.624940200000001,-0.3175697345408622,0.04,0.5962376800000009,-0.302277917018181,0.052,0.49244092000000034,-0.30865818516204596,0.082,0.39467331999999994,-0.3137049259691743,0.134,0.29229196000000013,-0.2960834787615548,0.19,alpha1
"('T6', 'Cz')",0.02048,0.2960831320972157,0.2960831320972157,0.7315309999999998,0.2986844694400005,0.03,0.6999929199999998,0.2976217020158239,0.038,0.6620855999999997,0.28297743432490563,0.026,0.6009024000000005,0.27591697239394886,0.036,0.5179363999999999,0.27516020047535406,0.068,0.42767031999999994,0.2622515406878943,0.106,beta1
"('T4', 'Pz')",0.007040000000000001,-0.2951706173711432,0.2951706173711432,0.6876523200000004,-0.3314739363046622,0.036,0.6549641600000001,-0.31922412553223567,0.044,0.6014566399999995,-0.32157968105800705,0.056,0.50447108,-0.3166314114529606,0.096,0.45879551999999973,-0.30122476171274426,0.09,0.31904004000000025,-0.29357699910950186,0.15,beta2
"('Fp1', 'P4')",0.011859999999999999,-0.29473260624583597,0.29473260624583597,0.7008883600000002,-0.32054073954545415,0.04,0.6733374000000008,-0.3065100147537295,0.04,0.6353809599999997,-0.3003378550522032,0.05,0.5411366800000004,-0.29927134618988344,0.078,0.48902700000000054,-0.2876654286644932,0.098,0.3728152400000001,-0.27902838849503175,0.148,alpha2
"('F3', 'Pz')",0.00126,-0.29340979154561614,0.29340979154561614,0.65028892,-0.35412836089861116,0.056,0.6144225599999994,-0.3436453610796683,0.042,0.5315900800000005,-0.3569303565435214,0.082,0.46514723999999996,-0.33163108013178993,0.088,0.39370132000000047,-0.3174140567777569,0.13,0.23328019999999985,-0.3263895181792946,0.28,alpha2
"('Fz', 'T4')",0.0129,-0.29311828030311454,0.29311828030311454,0.70887124,-0.29863043583463056,0.024,0.6549226000000002,-0.29745969359872826,0.018,0.6057197599999998,-0.2944945327099089,0.03,0.5224433599999997,-0.29347594811159683,0.072,0.43783712000000036,-0.3007074813551922,0.116,0.3486561200000001,-0.2749191660902562,0.146,beta2
"('Fp2', 'T3')",0.005080000000000001,-0.29272376621913143,0.29272376621913143,0.6432847200000003,-0.3714480397518429,0.064,0.6320285999999993,-0.32799415200098225,0.034,0.6047462000000002,-0.3101330795352315,0.05,0.49466107999999986,-0.3169479381502971,0.086,0.40437856,-0.31523823527327055,0.112,0.30279604,-0.3012766756316264,0.226,alpha1
"('T6', 'Pz')",0.013160000000000002,0.291969548707352,0.291969548707352,0.6611033599999993,0.3717174685403821,0.042,0.6137221199999997,0.349071100821178,0.068,0.6459997200000002,0.3029147955768293,0.038,0.5455979999999994,0.3036525547523551,0.084,0.4818758400000003,0.2963471832877553,0.128,0.37786260000000005,0.2840665848377627,0.146,theta
"('T4', 'C4')",0.00476,-0.29077066252808315,0.29077066252808315,0.6674921600000002,-0.3099085898171772,0.012,0.6228726799999998,-0.30040440447476946,0.018,0.5592435199999998,-0.3109043315775202,0.016,0.49514832000000064,-0.29404971749977016,0.038,0.3962438799999999,-0.2961491907980314,0.07,0.28052532,-0.29072629712363773,0.134,delta
"('Fp2', 'F3')",0.0058800000000000015,-0.2901696163356278,0.2901696163356278,0.6678623999999997,-0.286534315416112,0.008,0.6140602800000002,-0.30101082295883586,0.012,0.5894347600000001,-0.28623024528329205,0.02,0.45909976,-0.3007213668816332,0.038,0.3935760399999999,-0.2952157922028565,0.064,0.27310040000000013,-0.29317149812587306,0.174,delta
