,p_vals_full,mean_eff_size,abs_eff_size,p_vals_sz_20,eff_size_sz_20,freq_repr_sz_20,p_vals_sz_25,eff_size_sz_25,freq_repr_sz_25,p_vals_sz_30,eff_size_sz_30,freq_repr_sz_30,p_vals_sz_40,eff_size_sz_40,freq_repr_sz_40,p_vals_sz_50,eff_size_sz_50,freq_repr_sz_50,p_vals_sz_70,eff_size_sz_70,freq_repr_sz_70,band
"('F3', 'Fz')",5.744588325574312e-27,-1.1104011922292227,1.1104011922292227,0.3862824083966175,-1.1970287230749224,0.34,0.20741767802431071,-1.1772813901216936,0.584,0.06668070196329473,-1.1318415323083701,0.81,0.01017818653489481,-1.1218075376922563,0.962,0.0006413258021489924,-1.0775458650140728,0.998,1.886689939468459e-07,-1.0950387982449112,1.0,alpha2
"('Fz', 'F4')",1.381926889731218e-26,-1.0259140369673083,1.0259140369673083,0.3777957326665257,-1.1909045461787056,0.334,0.16764112880245718,-1.1493806207815662,0.61,0.04246069354254495,-1.1343186052176444,0.848,0.0022873196384460446,-1.1123706018090562,0.992,7.99986587956116e-05,-1.0852399238852104,1.0,5.287873729643413e-08,-1.073619898032205,1.0,alpha2
"('Fp1', 'Fz')",3.2359393944103004e-24,-1.0129475182657128,1.0129475182657128,0.463090163740643,-1.1330180184435623,0.252,0.24445022715152043,-1.0808843666590864,0.456,0.07928535819781043,-1.0546869339592306,0.742,0.008053442428206496,-1.0393512747739326,0.966,0.0005107214727752301,-1.033050892617577,0.998,5.126371164453728e-07,-1.017647078547668,1.0,alpha2
"('Fp1', 'F3')",5.59098013268772e-24,-0.9822080339614653,0.9822080339614653,0.4400373306876212,-1.1554798931650274,0.28,0.2206289912729493,-1.114141585015325,0.524,0.09321739706995276,-1.0910753807387803,0.732,0.0054166060369565915,-1.0496823268846063,0.976,0.00028290403890971334,-1.0334033701427696,1.0,6.96089513799653e-07,-1.0245039457888883,1.0,alpha2
"('F7', 'Fz')",1.880224167253631e-24,-0.972864783617362,0.972864783617362,0.4486308938003629,-1.1527565146081342,0.234,0.27451379690117333,-1.1044942667458404,0.454,0.11806062084500278,-1.0922739394248835,0.706,0.017348323171339372,-1.07664531591694,0.932,0.0014033854521391363,-1.0292130670704216,0.998,1.540687248212535e-06,-1.0269425908210879,1.0,alpha2
"('Fp1', 'F4')",6.391658671138836e-20,-0.9175545831241683,0.9175545831241683,0.6298978465839572,-1.0065251335605816,0.13,0.4450705721852872,-0.9819961548661384,0.29,0.2780353734212905,-0.942970319788535,0.452,0.07071746591212151,-0.945220544860083,0.814,0.01187723342544286,-0.9138758344359643,0.956,7.990312367271853e-05,-0.8970356286413044,1.0,alpha2
"('Fp2', 'Fz')",3.0292664441833233e-20,-0.8974157802485433,0.8974157802485433,0.5736258988906696,-1.0590412257288848,0.188,0.40000689781868193,-1.010887982479768,0.344,0.23758441436817165,-0.9817571827472286,0.532,0.06069764090231253,-0.9536352479739852,0.84,0.007040663596067935,-0.9331151660686205,0.974,3.450661347014135e-05,-0.9167051599047584,1.0,alpha2
"('Fp1', 'F7')",1.671173237793644e-20,-0.8863883783366344,0.8863883783366344,0.6007684928481923,-1.032041702919345,0.14,0.36676200027906014,-1.0116184127541652,0.342,0.2102381425037988,-0.9638892391174552,0.506,0.03910631838091396,-0.9567924396816583,0.87,0.003007075685797059,-0.9336374128400305,0.986,2.1054124790299363e-05,-0.9102717366781933,1.0,alpha2
"('F7', 'F3')",2.3816651215565186e-20,-0.8804232466017016,0.8804232466017016,0.5716344428483948,-1.0950048956741951,0.174,0.35961371700047834,-1.0785078225353963,0.386,0.1729261598459542,-1.0250309108313882,0.54,0.029277380045848768,-0.9941689969983318,0.88,0.002097306300935329,-0.9625993978337598,0.992,1.542534977316836e-05,-0.9378422438024162,1.0,alpha2
"('F3', 'F4')",1.1860352759347499e-21,-0.8665841465149757,0.8665841465149757,0.5888660149116148,-1.0461725785874711,0.178,0.3670766756986012,-1.0081378875415183,0.37,0.18633265426701587,-0.9995813794376261,0.568,0.03453087759189402,-0.9875237710292176,0.89,0.008953672731929483,-0.9385753238520768,0.968,1.1288066550377892e-05,-0.9542535297222704,1.0,alpha2
"('Fp2', 'F4')",6.41625372110058e-20,-0.8651892853464288,0.8651892853464288,0.605487851928274,-1.0451203236227882,0.198,0.45267574814951983,-0.9769810125728025,0.314,0.2797353724940927,-0.9680657670138242,0.494,0.08512996680578362,-0.9559576536466963,0.818,0.011962902898905904,-0.9215694431700537,0.96,6.603941231217093e-05,-0.9044246237496858,1.0,alpha2
"('F7', 'T6')",2.414678423053033e-16,-0.8494468647511191,0.8494468647511191,0.7577379086900466,-0.8772156350325796,0.068,0.5774227645147878,-0.8684928708005194,0.206,0.42408698798662897,-0.8440355235688332,0.302,0.20579940309503503,-0.8173875490310597,0.582,0.059223241723000246,-0.7982444538120603,0.818,0.003886791026106688,-0.8014466145603376,0.992,alpha2
"('C3', 'Cz')",2.065223841324161e-16,-0.816958400955856,0.816958400955856,0.78232580265658,-0.883279381870275,0.074,0.6050846851733024,-0.8500313552810382,0.164,0.4136772702889369,-0.8534647851943871,0.34,0.17993569351425837,-0.8114960600972685,0.586,0.04371199626280819,-0.8078737896317034,0.862,0.0007018107825341211,-0.797586284490169,0.996,alpha2
"('F7', 'F4')",2.135603929381231e-18,-0.8167347598632884,0.8167347598632884,0.6888172652965325,-0.9472886680807002,0.094,0.537527504818662,-0.9066636579539081,0.22,0.36341847745113226,-0.8956755484837592,0.382,0.11198254190326234,-0.8882800598771248,0.73,0.02993770789369638,-0.8517362536371313,0.902,0.00021909742501784543,-0.8521737860698149,1.0,alpha2
"('Fp1', 'F3')",2.4672454412410336e-17,-0.807671946927832,0.807671946927832,0.8073605852383006,-0.8936019649725522,0.022,0.5792364760695856,-0.875102628319306,0.094,0.3632851332541213,-0.8486348264161193,0.254,0.0703974093786335,-0.8282580819052666,0.716,0.006777007405689356,-0.8276528510233577,0.976,7.107132446200392e-05,-0.8163294178813625,1.0,beta1
"('F7', 'O2')",1.660391844942496e-16,-0.7875055229407637,0.7875055229407637,0.7755478565970642,-0.8814655419697648,0.078,0.6055311246995473,-0.8573404682293567,0.172,0.4339989494250102,-0.8360368786746267,0.31,0.20569263940136176,-0.8160261896985768,0.574,0.05561209622258318,-0.7986941572770112,0.848,0.0014373853101686273,-0.7972809062422508,0.998,alpha2
"('Fz', 'F8')",9.59393109979844e-15,-0.7693636096525893,0.7693636096525893,0.7775971122331258,-0.8666069378501834,0.074,0.6403460660656694,-0.8368271174921152,0.142,0.5471605280017442,-0.7991316398539855,0.202,0.272933400706936,-0.7893406718104878,0.48,0.11851464675851348,-0.7580507430900411,0.716,0.002489766202537227,-0.7574227099456737,0.994,alpha2
"('Fp2', 'F3')",6.542662870087334e-17,-0.7687590916777942,0.7687590916777942,0.7527687015562932,-0.9266892511795795,0.086,0.5489216078301,-0.9076670644612738,0.19,0.38655459500245126,-0.8755453215435062,0.304,0.11230374400514018,-0.8587025503289996,0.692,0.02494605580903106,-0.8282316966739778,0.888,0.00021590944247567892,-0.8302909850686772,1.0,alpha2
"('F3', 'F8')",8.74431211654738e-15,-0.7632397305638978,0.7632397305638978,0.819029553065066,-0.8187594258656335,0.04,0.6811949331385447,-0.7953237776971231,0.116,0.5702195225781932,-0.7676734516736726,0.162,0.2536379204873227,-0.7664976993129335,0.488,0.09880702139260657,-0.7421292197619326,0.718,0.002170261043499657,-0.7504480930907359,0.99,alpha2
"('Fp2', 'F7')",1.3128802520835903e-14,-0.7583046194341273,0.7583046194341273,0.8362186801688143,-0.8175814834144604,0.042,0.6738428110146442,-0.8080265899281287,0.12,0.5591725801712157,-0.7654730232492236,0.202,0.26952197341024087,-0.7771252129517738,0.502,0.11926964675027833,-0.7502369030075027,0.72,0.0041926023867974,-0.743864143938708,0.978,alpha2
"('Fp1', 'Fz')",5.777337245962231e-15,-0.7523625993282617,0.7523625993282617,0.847855478889325,-0.8223017742461314,0.016,0.7003696331862956,-0.7964417631327797,0.068,0.5187058212898877,-0.7826727412423234,0.174,0.2022007350684766,-0.7686184043445666,0.504,0.05330056623248259,-0.7591412741370619,0.796,0.0008353148953462602,-0.7523823225232948,0.996,beta1
"('Fp1', 'O2')",6.066862581267327e-15,-0.7473066307010082,0.7473066307010082,0.7738164402217337,-0.8529732036934878,0.074,0.5949812197717242,-0.8555455092175736,0.182,0.49996007961301586,-0.8134326770110966,0.264,0.24360096855584515,-0.7946095504173245,0.556,0.10660521445811014,-0.76622522602478,0.738,0.004594198165170177,-0.7644919045875184,0.984,alpha2
"('Fp2', 'F4')",1.2702906584770824e-15,-0.723085824948917,0.723085824948917,0.804037397137634,-0.8347741188724077,0.05,0.6524078313771643,-0.8265370400515794,0.112,0.5274744602357019,-0.7790814637351048,0.2,0.20839978779642776,-0.7919437718626755,0.59,0.06307552605388747,-0.7671215879073284,0.814,0.0012272468455579836,-0.7661059849517182,0.996,beta1
"('T6', 'O2')",1.1893069126413384e-14,-0.7154549748749084,0.7154549748749084,0.8055283512626124,-0.8175008458735132,0.05,0.6541968560628705,-0.8063884253387505,0.118,0.49242116011883874,-0.801180096636322,0.252,0.27557627940026935,-0.7746596096793278,0.508,0.10271744645464553,-0.766243985398792,0.738,0.0058783203670394754,-0.7495347377199146,0.968,alpha2
"('Fp1', 'T6')",8.588924112905103e-13,-0.7152192515536289,0.7152192515536289,0.8740116827859513,-0.7385147997296954,0.032,0.759055034781785,-0.7383995256212124,0.062,0.6357153782834817,-0.7229673536931526,0.114,0.4134052875883431,-0.6931108480702641,0.344,0.20130333208406065,-0.6830358297121425,0.554,0.013053401983597286,-0.6911558971348961,0.946,alpha2
"('Fp2', 'Fz')",1.4506601190134247e-13,-0.7138488738334948,0.7138488738334948,0.8759718241802688,-0.7696599622118061,0.026,0.7612813289497316,-0.7488778929520289,0.07,0.5956340913456565,-0.7339861956464581,0.124,0.30635582061097644,-0.7325433401636859,0.406,0.13682961848130867,-0.7076158544207584,0.652,0.009000552365971219,-0.7054015747778605,0.968,beta1
"('T3', 'Cz')",2.9433213749553547e-14,-0.7123440598508461,0.7123440598508461,0.8765844329024837,-0.800667012889851,0.024,0.7525026845057768,-0.768806366855406,0.064,0.5655315426250417,-0.764796085553744,0.174,0.25681299615128406,-0.7457665276880385,0.43,0.07486013731226251,-0.737973483662222,0.758,0.001938043846532307,-0.7339228666082773,0.992,alpha2
"('F7', 'Cz')",2.8257381690705438e-14,-0.7068599659900465,0.7068599659900465,0.7946536551408939,-0.8587352342194062,0.066,0.6866642085606577,-0.826175641353602,0.134,0.5497717329961482,-0.79612110036718,0.228,0.29118928859117654,-0.779601452308797,0.5,0.14048924939104637,-0.7539497739909732,0.696,0.006360556310070007,-0.74564998304956,0.968,alpha2
"('F4', 'F8')",4.2794343197313394e-15,-0.698552649114259,0.698552649114259,0.6883633531656332,-0.9306581266977553,0.15,0.5818092408071978,-0.8707020193290697,0.232,0.4928778911192924,-0.8481852274338585,0.306,0.29020370796842765,-0.8241654572082462,0.506,0.13951115155592672,-0.8035329835024855,0.72,0.009728189205614832,-0.7838514302969862,0.962,alpha2
"('F4', 'Cz')",1.0702702268797132e-12,-0.6880975693158128,0.6880975693158128,0.8414086543977617,-0.7818120097901464,0.052,0.7456662181003367,-0.7517755654190118,0.096,0.6423261647286355,-0.7290836306563553,0.168,0.3978084216196718,-0.7153827278767495,0.378,0.19523791633338416,-0.6985600047099878,0.576,0.020815368682941378,-0.6918103877674797,0.924,alpha2
"('Fp1', 'F3')",3.5872762235456015e-13,-0.677280442912082,0.677280442912082,0.8906747753466915,-0.8201216312277817,0.014,0.7909929580812922,-0.7848755491377241,0.056,0.6107542316164174,-0.7712444442573042,0.108,0.27133272810323716,-0.73753456350433,0.334,0.0635534281662754,-0.726442423851704,0.698,0.002213042857321705,-0.715060100141801,0.998,alpha1
"('F3', 'Cz')",6.448593201255817e-12,-0.6761933098448851,0.6761933098448851,0.8435810625962096,-0.7897404987008958,0.038,0.7326422792769512,-0.7644927725112514,0.106,0.6419622958280301,-0.7296446405919571,0.17,0.4057382437573839,-0.7175360767923888,0.374,0.2523243790542142,-0.6970506679707393,0.574,0.042306928574457586,-0.6884059092961894,0.87,alpha2
"('F4', 'F8')",3.1739555599456947e-12,-0.6711374107237307,0.6711374107237307,0.9147044803110003,-0.7285326442758976,0.012,0.8081462322016311,-0.7074531669866152,0.03,0.7006268425644447,-0.6842713818829212,0.088,0.40848482298286465,-0.6870968042647251,0.334,0.1783615110842235,-0.6835519846044672,0.574,0.0182726079818611,-0.6688608885961927,0.928,beta2
"('O1', 'O2')",1.526486221955952e-08,0.6693660300391558,0.6693660300391558,0.8785914678874772,0.70071643295114,0.032,0.8064079750919491,0.6689499731561787,0.072,0.7371732123220617,0.6605604970236149,0.112,0.5923379583600169,0.6281688328234017,0.216,0.4529117068897643,0.6168375196412794,0.352,0.24371355368561073,0.5965445280591231,0.566,alpha1
"('Fp1', 'Fz')",7.30849726876867e-11,-0.6680638623823254,0.6680638623823254,0.9414631110926638,-0.6809309644908488,0.002,0.8704549110489576,-0.6582019582132588,0.016,0.7650619303758073,-0.6543510719517822,0.056,0.5033045309019001,-0.6472284001500318,0.222,0.28325710510289587,-0.6338336128533045,0.424,0.03622612599364692,-0.6361405625861948,0.872,beta2
"('T3', 'C3')",6.616960027462881e-12,-0.6670431240253748,0.6670431240253748,0.9310662419372521,-0.7170813068098578,0.01,0.8444496576236603,-0.698698884363186,0.03,0.7293487000567666,-0.6863064268384996,0.066,0.4384239111767252,-0.6764039155328745,0.242,0.19382300043949693,-0.6760191177961882,0.528,0.01403749791158111,-0.6610315538683038,0.948,alpha2
"('Fp1', 'F7')",2.580253866668597e-11,-0.6641318927301744,0.6641318927301744,0.8929638693211938,-0.7172760675846521,0.016,0.8402350063282445,-0.6859602815528543,0.044,0.7067167703132071,-0.6809085366709489,0.116,0.4688446030280431,-0.6706594515260803,0.278,0.2509596387508358,-0.6643159555773567,0.51,0.045739811633121366,-0.6387030260671597,0.856,beta2
"('Fz', 'F4')",2.4530119240639047e-12,-0.6613702581834145,0.6613702581834145,0.8945896403669049,-0.750011777367832,0.018,0.7908303844468667,-0.7324370599563002,0.082,0.6835656581839148,-0.709385788512911,0.124,0.3976024626874963,-0.7051486477597846,0.33,0.20238072931315199,-0.6935971561178764,0.582,0.020728736104464,-0.6760830402318068,0.928,beta1
"('F4', 'F8')",1.770499762327452e-10,-0.6540078828629646,0.6540078828629646,0.8804489719964333,-0.7188751150883814,0.012,0.7933100726695225,-0.6820440251505099,0.064,0.7086718902163789,-0.6654428667892536,0.128,0.49392350921738953,-0.6671145472314103,0.304,0.34863617119979834,-0.6586511296487322,0.438,0.09950312659220832,-0.6243058644562868,0.756,beta1
"('Fp1', 'Fp2')",1.43157857804979e-10,-0.6522282604975188,0.6522282604975188,0.8847898204761173,-0.7286079964305069,0.044,0.7641845059699555,-0.7214061111526001,0.086,0.7205679724979731,-0.6832026445040349,0.144,0.5156398895288833,-0.6758059902179842,0.276,0.3915155171628913,-0.6420429074214754,0.388,0.07877439105804585,-0.6365940373718978,0.788,alpha2
"('Fp2', 'F8')",7.799967742921211e-10,-0.6494362910470131,0.6494362910470131,0.8398820296468144,-0.7680001345181082,0.044,0.7457937117045563,-0.7325067124784802,0.11,0.697796492417155,-0.6998656005173741,0.162,0.5282065345909653,-0.6828285224193141,0.322,0.42108850141540594,-0.644343299897053,0.35,0.13525788287770757,-0.6337890294466337,0.712,alpha2
"('F8', 'O1')",2.343180102782026e-11,-0.6409114661933336,0.6409114661933336,0.9095952712611007,-0.7159632342459447,0.024,0.8054749809633593,-0.6921657448489054,0.058,0.7249087959635614,-0.6717844359475564,0.106,0.49331807783023357,-0.6654668190857224,0.244,0.2726884657502545,-0.6499827396962022,0.468,0.05124245094435459,-0.6447928447956814,0.856,alpha2
"('Fp2', 'O2')",1.0525687743667811e-11,-0.6392246145232584,0.6392246145232584,0.8609115473182019,-0.74869367090444,0.032,0.7588089321087923,-0.7359319343342288,0.08,0.6690704397771672,-0.7169917706739304,0.13,0.4254175888178149,-0.7005028434741705,0.306,0.27352914559754526,-0.6727367628557666,0.498,0.03647697179690509,-0.6704467805870795,0.9,alpha2
"('Fz', 'T3')",1.5333304267109418e-10,-0.6365512349484915,0.6365512349484915,0.9106557198036747,-0.6733497712444716,0.02,0.8821407310158818,-0.6408150511982437,0.024,0.7582994462122308,-0.6557193186228952,0.096,0.5596265462716602,-0.629854050419629,0.228,0.33496425837602617,-0.625531375882903,0.398,0.06975806592186719,-0.6299844526687894,0.798,alpha2
"('Fp1', 'F3')",4.01491242125142e-11,-0.6331273575445253,0.6331273575445253,0.9102305703852761,-0.712307149542964,0.014,0.8285519929043429,-0.6913791818875262,0.042,0.7259635486239517,-0.684345250564491,0.106,0.4894021628343117,-0.6630935853217242,0.22,0.2696164624273361,-0.6558564183229287,0.472,0.03130630507860124,-0.6447388781383563,0.896,beta2
"('Fp2', 'F4')",8.945267745595319e-14,-0.6326013223927249,0.6326013223927249,0.8570075844785379,-0.7827117763627077,0.036,0.7319005301313096,-0.7604554192311033,0.092,0.5765907116132915,-0.7541025326362834,0.152,0.3316152015671642,-0.7350083830293809,0.438,0.14442830909382406,-0.7188165082391359,0.67,0.009095272387647992,-0.722816147160675,0.974,beta2
"('Fp1', 'F4')",7.000044744758418e-10,-0.6262412605551613,0.6262412605551613,0.9326125668196538,-0.681532623668449,0.01,0.894076835461087,-0.6310056616047215,0.028,0.7968963510003981,-0.6500183598232143,0.062,0.5887917321646731,-0.6272813617304367,0.152,0.3534697433868155,-0.6205650604889883,0.346,0.07539436806583798,-0.6030021855472164,0.776,alpha1
"('F3', 'Cz')",1.2796993802652236e-09,-0.6183270525375295,0.6183270525375295,0.9453462908879453,-0.662451185517449,0.01,0.8722369642984807,-0.6487740795884264,0.028,0.7828307146108244,-0.6516772646797332,0.06,0.5748962928825283,-0.6299259257611353,0.166,0.3891250526316565,-0.6146307062054579,0.35,0.08329445782259516,-0.6084156529968447,0.75,beta1
"('Cz', 'C4')",5.105477155467166e-10,-0.6088537909844659,0.6088537909844659,0.8929683395434782,-0.7305861055384513,0.024,0.758151962516081,-0.7100477574263903,0.086,0.6541534727967127,-0.6942757308593245,0.14,0.48051683715908156,-0.6626785265327676,0.332,0.37150629774358895,-0.6442458138289361,0.468,0.13587594108343715,-0.6413051922639021,0.69,alpha2
"('F7', 'F3')",2.0407327771895137e-10,-0.6084476313398184,0.6084476313398184,0.9623986274808224,-0.6896748417099343,0.002,0.9021638696417731,-0.6693785239293043,0.018,0.8436351875790714,-0.6550050389111484,0.032,0.5253364838580702,-0.6500765625057107,0.16,0.24448169855870278,-0.6400107101655781,0.37,0.02555578159481014,-0.6214723937164508,0.894,beta1
"('Fp1', 'F7')",1.1114019394965006e-10,-0.6083649357006025,0.6083649357006025,0.9141312194227759,-0.700077214757723,0.018,0.8515262520607453,-0.6721119337454138,0.048,0.759099552104612,-0.6613731993761748,0.074,0.5111739071074818,-0.6565763091686329,0.256,0.3010432961511933,-0.6467394240376685,0.448,0.06986289061491796,-0.6295960721402557,0.818,beta1
"('F3', 'Fz')",7.623577493014631e-11,-0.6056409115100375,0.6056409115100375,0.9369772683812132,-0.6943714345764137,0.016,0.8703708080011843,-0.6662009339774709,0.034,0.7636213318104155,-0.6678269213361353,0.07,0.493937113584604,-0.6574803113992399,0.196,0.280761268067842,-0.6358993909126202,0.424,0.03689084373542139,-0.6346167539443581,0.88,beta1
"('F8', 'T5')",3.178486768334579e-10,-0.6029374626228533,0.6029374626228533,0.9270496031450655,-0.675112066914989,0.008,0.8797569894498347,-0.663429833636114,0.024,0.7777133702070793,-0.6433896423652138,0.072,0.5882117495097974,-0.6232980064599728,0.154,0.35888231678645216,-0.6235604065997014,0.386,0.07817279968253336,-0.6098257013847147,0.794,alpha2
"('F7', 'F3')",4.652430021724418e-10,-0.593367390409212,0.593367390409212,0.9381145411173829,-0.6952351662720189,0.002,0.8654900265354878,-0.6688774772053013,0.022,0.7464646261220743,-0.6873611213757176,0.06,0.5127758085713137,-0.6527133394205044,0.19,0.33070847609018916,-0.6360532489644027,0.418,0.08222998666127658,-0.61550362146812,0.714,alpha1
"('Fp1', 'Cz')",2.510929478467987e-10,-0.5909784384186404,0.5909784384186404,0.9582709372793851,-0.6636409596243942,0.004,0.8915562195729662,-0.6374030670598344,0.018,0.8093017465935276,-0.6397430007536111,0.032,0.5548925416657597,-0.6297798191980963,0.148,0.3417825998118636,-0.6219235355486871,0.368,0.053714283734682566,-0.612160021468139,0.826,beta1
"('Fp2', 'F3')",2.251012066202117e-09,-0.5858649959811155,0.5858649959811155,0.9532266822264781,-0.6725726431134297,0.01,0.8964611636881054,-0.6464772991805732,0.026,0.7945330171516097,-0.6472196740720273,0.058,0.6071356077260838,-0.6201688997218602,0.14,0.44318585253453247,-0.5970779287191689,0.284,0.10993215492622435,-0.5922213184165583,0.678,alpha1
"('Fp1', 'F4')",1.131463618091203e-08,-0.5834475531490293,0.5834475531490293,0.9561495508491454,-0.6129342944938041,0.008,0.9241414210208111,-0.588555875591591,0.014,0.8764425764322092,-0.5708370086521379,0.032,0.6730295837369039,-0.5807131706171649,0.12,0.4953035344333296,-0.5731649889612644,0.25,0.14715201238214665,-0.5643301647910823,0.62,beta1
"('Fp1', 'C3')",3.5857624885731043e-10,-0.5821563221500693,0.5821563221500693,0.9564149597762861,-0.6764189140324551,0.016,0.8968465659478745,-0.6374993566356881,0.01,0.8141664772999273,-0.6354434270433139,0.038,0.5927448003479369,-0.6186461356774274,0.134,0.35418067806838727,-0.6187233050172154,0.36,0.06187885761149187,-0.6062804805591572,0.812,beta1
"('T5', 'O1')",5.8662349312812144e-09,-0.5809894679459585,0.5809894679459585,0.9048582079224002,-0.6757969331621199,0.026,0.8480757185935959,-0.6597903521394242,0.042,0.7851638931375485,-0.6257676432482417,0.086,0.6016477320734795,-0.6187276106125679,0.186,0.4656429300045812,-0.6029607071427387,0.3,0.18455577528750997,-0.5995353482996807,0.64,alpha2
"('F3', 'T6')",1.095102641428196e-10,-0.5797573078762727,0.5797573078762727,0.9183986459826892,-0.6819452349346246,0.006,0.8376701273477968,-0.6775851489709543,0.038,0.7324784508017268,-0.6638719558156366,0.09,0.5495689249608672,-0.63718572984687,0.196,0.32082106628821055,-0.6327580707196142,0.414,0.0532936934372013,-0.6335480488248794,0.82,alpha2
"('Fp2', 'T6')",4.304563355113966e-09,-0.5793960194099445,0.5793960194099445,0.9289863444222297,-0.6356844177558806,0.016,0.8686036874035871,-0.6225204125929293,0.034,0.7959502215893054,-0.6156291249929845,0.058,0.6341409328245746,-0.6005145162778986,0.16,0.475736559030856,-0.5792264075601583,0.27,0.12333620614384813,-0.588552603206788,0.666,alpha2
"('Fp1', 'Fz')",1.337375393463295e-10,-0.5788387042791523,0.5788387042791523,0.9261962552046967,-0.7060267552056979,0.004,0.875558648293078,-0.6625943338196477,0.026,0.7429150361193063,-0.6766788152841977,0.058,0.5290320128403367,-0.6486493026895955,0.202,0.2952929005745694,-0.6362226349821646,0.41,0.052837930245911685,-0.6247817403274964,0.824,alpha1
"('Fp2', 'Fz')",4.4161527381049504e-09,-0.573507463775069,0.573507463775069,0.9402626462887789,-0.6403726325950526,0.004,0.9081939248486938,-0.6222410160122138,0.036,0.8318096635880335,-0.603381981162233,0.034,0.6518028971674337,-0.59604046062614,0.146,0.4886728056176632,-0.5810729640900298,0.258,0.13774336507114332,-0.579477813987562,0.65,beta2
"('T3', 'Pz')",3.4957174600416955e-09,-0.5724004055572776,0.5724004055572776,0.9474342770361519,-0.6361729663170282,0.01,0.9309600335029955,-0.5860907505512715,0.01,0.8287881674624716,-0.6003195348148253,0.054,0.6383357076820865,-0.6065580774909953,0.158,0.4230073148708222,-0.5969567868805092,0.294,0.11858003383913002,-0.5914476146620855,0.732,alpha2
"('Fp2', 'F4')",5.833408345935344e-10,-0.5723842057707621,0.5723842057707621,0.9327019518907307,-0.6532372907393436,0.008,0.8815853495171767,-0.6301998115002947,0.016,0.7948149875162375,-0.6225085617453768,0.054,0.5919637845306032,-0.6171869238415508,0.158,0.38177156886111835,-0.6074767541352393,0.346,0.08923139889383783,-0.6081174795360639,0.75,gamma
"('C3', 'C4')",8.897292883644581e-10,-0.568726573098562,0.568726573098562,0.9154027044238521,-0.6735281967549049,0.022,0.8464285986087513,-0.6535915058554718,0.054,0.75471506603309,-0.6523390869963438,0.086,0.5975477841066587,-0.6221699042773344,0.182,0.41946731936872916,-0.6101487006921706,0.322,0.10339412731270742,-0.6153629688500827,0.74,alpha2
"('F3', 'Fz')",2.5546500310621537e-09,-0.5634483521972802,0.5634483521972802,0.8780542589172611,-0.7210938828075307,0.032,0.8065177261379103,-0.6822515230075471,0.076,0.6950363459054657,-0.6794649116966994,0.128,0.5113488728577789,-0.6602429724138228,0.268,0.4324456773943388,-0.6227191854332473,0.4,0.18881351165290267,-0.618971702937524,0.636,alpha1
"('Fp2', 'Cz')",6.761585844596723e-10,-0.5622430398841253,0.5622430398841253,0.936942464159557,-0.6716617091793718,0.01,0.8546441610165832,-0.6494497607900778,0.038,0.7845262230256168,-0.6395424462870326,0.084,0.5790676300463754,-0.6315485673384935,0.192,0.40396647987663437,-0.6103894950467366,0.33,0.10615487908415323,-0.6048474668106867,0.726,beta1
"('F7', 'Fz')",7.76650091409889e-09,-0.5534522072356329,0.5534522072356329,0.9396074997824944,-0.6372337723589779,0.012,0.9041348051206799,-0.5978916516994554,0.016,0.8098076287300554,-0.6225570623336131,0.048,0.6484930089713102,-0.5976380901271064,0.124,0.4886290042584581,-0.5786888985077318,0.256,0.15261434748517955,-0.5728254391280463,0.62,alpha1
"('Fp2', 'F3')",5.979836522350684e-08,-0.5529375652971651,0.5529375652971651,0.971231380469912,-0.5843400253947738,0.0,0.9458267018307784,-0.5758077015664252,0.008,0.909155061999397,-0.5610304120950376,0.008,0.7427565454504171,-0.5592847792588662,0.066,0.5630009638719446,-0.5438795274125747,0.136,0.21273533394365246,-0.5403537343808485,0.52,beta1
"('F4', 'C3')",3.062390731234896e-09,-0.5491559688426177,0.5491559688426177,0.9377316157668562,-0.6420363065437896,0.012,0.9009084347932339,-0.6016531305808556,0.024,0.8210229752101292,-0.612350030463485,0.048,0.6267964129012474,-0.6103448635122029,0.162,0.44403328345294785,-0.5856332470657319,0.286,0.10747788314743512,-0.5888282298948198,0.698,alpha2
"('O2', 'Pz')",3.408711539763016e-08,0.5486187762325423,0.5486187762325423,0.9657342527661537,0.6105880639388648,0.002,0.9299264833508479,0.5849855686355308,0.008,0.855555072073946,0.583251993498462,0.03,0.7160227345319745,0.556955255165925,0.09,0.5544551921808708,0.5593284560481699,0.212,0.1665895764215315,0.5536393462442405,0.574,alpha1
"('Fp2', 'C4')",4.849864224357204e-08,-0.5465660321515097,0.5465660321515097,0.977715229564505,-0.588376731881381,0.004,0.9266197625381805,-0.573111322800657,0.004,0.8659110429959489,-0.5683458456198253,0.03,0.7045154056481305,-0.5695259515435386,0.106,0.5516811584138054,-0.5559870403583743,0.2,0.21692765376882936,-0.5421879704399926,0.522,beta1
"('Fp1', 'F3')",6.25400414939467e-08,-0.5450064152563254,0.5450064152563254,0.9809468090070873,-0.6191821668402478,0.002,0.9618797387862792,-0.6008216059937751,0.002,0.920148336175216,-0.5939309520714244,0.014,0.7900877477820065,-0.57011168508651,0.03,0.5674826792092088,-0.5603865070238306,0.118,0.148474181124188,-0.5488992902639116,0.556,theta
"('O2', 'P3')",1.1020719229822005e-08,0.5436808980513116,0.5436808980513116,0.9380644387624585,0.644062553259607,0.02,0.9089743847459427,0.6153916170668081,0.024,0.8097794690195388,0.607448758917635,0.062,0.670468770537287,0.5865368246532733,0.124,0.46224727145902317,0.5901734428220268,0.242,0.15664454540968173,0.569081652572431,0.646,alpha1
"('F3', 'T3')",2.2102274440683634e-08,-0.5433997754651371,0.5433997754651371,0.936471098855191,-0.6352061460931874,0.012,0.9052004525824959,-0.5924014663630865,0.02,0.8262559258896707,-0.6029610543665048,0.07,0.7140842431141289,-0.5716313914035948,0.112,0.5177655627568509,-0.5736378282343477,0.232,0.178227364331933,-0.5609914822211789,0.6,alpha2
"('Fp2', 'F4')",4.809751930458875e-09,-0.5418321556121348,0.5418321556121348,0.9456730667057949,-0.6846680026735966,0.02,0.8925738552149106,-0.6456769086258644,0.028,0.7852519817610911,-0.6478138182249514,0.064,0.648387667934265,-0.6087184463791759,0.12,0.45323021245644113,-0.5958453254155068,0.248,0.1220330688197403,-0.5864417131401564,0.684,alpha1
"('Fp2', 'C3')",9.828251512774421e-09,-0.5414632928796597,0.5414632928796597,0.9670469469721545,-0.606138507419541,0.006,0.9247544032877323,-0.5873367800156227,0.014,0.890044099867861,-0.5837445700511107,0.02,0.6934502043574633,-0.5753633295380692,0.072,0.488996050813933,-0.5678445075032553,0.24,0.15142526142889906,-0.558109053392501,0.61,beta1
"('F7', 'F3')",4.449624710906805e-09,-0.5392812927288497,0.5392812927288497,0.9586139901136943,-0.6261669910135329,0.002,0.915927881894061,-0.6098983983742637,0.008,0.8381815138545273,-0.5986763161954769,0.036,0.6290630270624967,-0.5996858884272726,0.132,0.43806909322056825,-0.5864327376437242,0.256,0.13362059408991958,-0.5720972005644999,0.646,beta2
"('F7', 'Pz')",3.920381339821783e-08,-0.5386990412330575,0.5386990412330575,0.929910986431782,-0.6285660050638294,0.014,0.9108201073213854,-0.5747035109648843,0.03,0.8278493479171336,-0.5853779534362814,0.078,0.6825398264803976,-0.5678876947935044,0.134,0.5594545127256341,-0.5593217510761137,0.22,0.22465050764877248,-0.5582104983976529,0.562,alpha2
"('F3', 'O2')",2.3570422733839045e-08,-0.5375181513806662,0.5375181513806662,0.9456802355641999,-0.6096549425023177,0.008,0.9084265689738269,-0.5942319139326211,0.02,0.8325411903101388,-0.5959712113361844,0.052,0.6936688673008654,-0.563777128449441,0.114,0.5325515846661361,-0.5551241272849995,0.196,0.18839392137895716,-0.563629983775456,0.586,alpha2
"('Fp1', 'F8')",8.424284701401948e-09,-0.5362172393885338,0.5362172393885338,0.9290788373678642,-0.6538740633126093,0.018,0.8604986717691147,-0.6406799401608984,0.046,0.8116759608538568,-0.6085581466813577,0.064,0.6207169170784206,-0.6125971577757474,0.2,0.4792601069370812,-0.5879910369447297,0.278,0.18733094702652842,-0.5849196718546757,0.61,alpha2
"('Fp2', 'O1')",1.3987074622921617e-07,-0.5359391919492267,0.5359391919492267,0.966027824303627,-0.5893148284010166,0.006,0.9052752655475211,-0.5769644557747327,0.018,0.8498605349937571,-0.5802798020280661,0.038,0.7265380267155859,-0.5484893367930292,0.096,0.5541684772134652,-0.5549736270916918,0.232,0.25184469075659494,-0.5436210901969918,0.506,alpha2
"('F8', 'O2')",6.177107562242375e-08,-0.535473501379655,0.535473501379655,0.9336281578768861,-0.6144871072245998,0.01,0.8995743379400697,-0.5960465292403936,0.022,0.8343307643344641,-0.5870111916585588,0.058,0.6860152543150023,-0.5723028540728686,0.102,0.5352579178303265,-0.5550465717346159,0.208,0.23004655037261182,-0.546601625101709,0.522,alpha2
"('F7', 'F8')",1.9168259169543246e-08,-0.5339232790440256,0.5339232790440256,0.9315169944628243,-0.6126807451852766,0.018,0.905624878376083,-0.5933395166427498,0.028,0.8497399502894722,-0.5866739008465524,0.054,0.7021721875638733,-0.5795807956356898,0.128,0.5157348434165971,-0.5650741759895527,0.242,0.18960570026193763,-0.5626110783716349,0.578,alpha2
"('F3', 'F4')",3.543655866477864e-07,-0.5301341062793895,0.5301341062793895,0.9591526686110127,-0.5916975971714425,0.008,0.9244867289047286,-0.5547885078117438,0.022,0.8552759804213498,-0.5695916762792137,0.038,0.7654890210329012,-0.5366718110464802,0.076,0.6487937814860473,-0.5248681905779706,0.178,0.31495812018318703,-0.523766721635544,0.426,alpha1
"('T4', 'C4')",2.6514250891395506e-07,-0.5283675167831824,0.5283675167831824,0.9448131605333463,-0.5864415480435065,0.006,0.9324030891969648,-0.5511026611515543,0.024,0.8845455390199256,-0.5435792832894277,0.042,0.7621637739199844,-0.5360221752302797,0.072,0.6091972912820887,-0.5368070461788126,0.168,0.3005797205073118,-0.5167435559653968,0.432,beta2
"('Fp2', 'C3')",1.2045114614897025e-07,-0.5237832255433872,0.5237832255433872,0.9578800505794056,-0.5750016350282655,0.01,0.9375072716023433,-0.5574763533032475,0.012,0.8736480365238262,-0.5622675243338321,0.042,0.7611848077310308,-0.546134850764053,0.066,0.614647049072718,-0.5252396253097051,0.172,0.27600563146561974,-0.5301826469908836,0.49,alpha1
"('Fz', 'O2')",4.385032050481297e-06,-0.5195576502364952,0.5195576502364952,0.9676137219330792,-0.5339249299406691,0.006,0.9664669580829879,-0.5017891024272232,0.006,0.9227467055599031,-0.5104462293030967,0.02,0.8703934257313223,-0.48203605517999565,0.024,0.7511305547890818,-0.47479746321618505,0.082,0.41753636148342876,-0.48737562929196876,0.316,alpha2
"('T4', 'C4')",7.039812252143626e-07,-0.5193853373879134,0.5193853373879134,0.9722291118205229,-0.582048607109918,0.006,0.9595833302381775,-0.5473829915434345,0.004,0.941631331817313,-0.5282689796058078,0.006,0.835184886042337,-0.52244046397755,0.036,0.6715106380671371,-0.5251256841956947,0.116,0.32828490767968055,-0.5089015705095337,0.342,alpha2
"('Fp1', 'F7')",1.0454571033811658e-08,-0.5183143780404981,0.5183143780404981,0.9639654238413746,-0.6299158903282319,0.002,0.917087183600291,-0.6126972019875695,0.01,0.8390207276928519,-0.615820127560631,0.03,0.6648605212467177,-0.5924556145467613,0.106,0.47147559683576107,-0.5857204766949614,0.24,0.14873487312871217,-0.5693587162521483,0.618,alpha1
"('Fz', 'T6')",2.8319661395845035e-08,-0.5174643980967903,0.5174643980967903,0.956077786914261,-0.5994213031338894,0.006,0.9203740385870138,-0.5883284160551805,0.016,0.8450551516805475,-0.590447500595394,0.052,0.727081601887416,-0.54872263181548,0.09,0.5430131876359441,-0.5554706285500077,0.202,0.19384091943898024,-0.5572663835757066,0.602,alpha2
"('T6', 'Pz')",5.000705734399406e-07,0.5164082341787316,0.5164082341787316,0.9650860950219223,0.5879982118811179,0.004,0.9357082564217284,0.5577672418623107,0.008,0.8776621912811038,0.5635753580813125,0.03,0.7344726440401125,0.542988655896121,0.12,0.6372792614257324,0.5228711694379059,0.196,0.3141444236373943,0.5218248213103462,0.428,alpha1
"('Fp1', 'Fz')",2.025415871291818e-06,-0.5140737059803702,0.5140737059803702,0.9953192211067381,-0.5278828571338291,0.0,0.9900677874265377,-0.4996708460097887,0.0,0.9622124458244954,-0.5126824132402152,0.002,0.8900826562432693,-0.4965053984819347,0.016,0.7429387010051657,-0.4971451141281879,0.044,0.3545225231038623,-0.48797835764012404,0.258,delta
"('T3', 'T6')",3.939248486236305e-06,-0.5131310019853894,0.5131310019853894,0.9865368827309823,-0.5157783778574082,0.004,0.9580682074026641,-0.5018270569302188,0.004,0.9242831824451336,-0.5044794699394223,0.022,0.8363173429516504,-0.49817449038205075,0.028,0.7355643969365451,-0.49122625739692466,0.076,0.4377687287017716,-0.47622491746404033,0.256,alpha2
"('Fp1', 'O1')",2.6888313838132636e-07,-0.5085847023359209,0.5085847023359209,0.9743998652165801,-0.569883090782938,0.006,0.910923623578212,-0.5649969815883162,0.018,0.8854845953788548,-0.5564041788224395,0.04,0.7677440177742146,-0.5360968936496313,0.086,0.5967662296992434,-0.5386215606611638,0.186,0.26218195143643297,-0.5265767996964905,0.456,alpha2
"('Fp1', 'Fp2')",7.4844011823139e-06,-0.506441747128813,0.506441747128813,0.9870582144914184,-0.5079110461231162,0.002,0.9757480252311875,-0.4950351821442964,0.002,0.9494957463338942,-0.47953196555912964,0.016,0.853895166856614,-0.4836144607302056,0.028,0.7876232488605119,-0.46906463977244256,0.062,0.47404063585139417,-0.4686334501921007,0.214,beta2
"('Fp1', 'T3')",5.107143802978754e-07,-0.5058300402205674,0.5058300402205674,0.9743199218505657,-0.5644542069697752,0.002,0.9499687444523982,-0.5384972365467506,0.014,0.8933181692144809,-0.5402243822311417,0.022,0.7922539897779958,-0.5279184276646925,0.06,0.6603646405467728,-0.5163882542746997,0.126,0.30901543784769114,-0.5196861833098205,0.4,alpha2
"('Fp1', 'Cz')",1.2065227850424113e-06,-0.5027637050706792,0.5027637050706792,0.9604637720985,-0.5827856291771286,0.008,0.9367941289423382,-0.5308711553043267,0.01,0.8967225608108685,-0.5295573244301167,0.024,0.8023932154925074,-0.5216007677327424,0.07,0.6716346619021958,-0.5096701590606968,0.14,0.36635692870754377,-0.5079939032067305,0.364,alpha2
"('Fp2', 'Fz')",1.3969591753825026e-07,-0.5026309680586991,0.5026309680586991,0.9529747949225342,-0.6429494467704048,0.004,0.899195245773478,-0.6110118580008528,0.016,0.7949136737704925,-0.6278421682371321,0.044,0.6682642514179706,-0.5767390764068498,0.112,0.5404580224763339,-0.5608630609352337,0.26,0.30599978173052333,-0.5520087190007915,0.496,alpha1
"('F3', 'C3')",3.2058481176937957e-07,-0.5020262457940639,0.5020262457940639,0.9725667663045576,-0.5897008867184148,0.002,0.9600976615974381,-0.5584686560408302,0.008,0.9143490411835374,-0.573173430101666,0.008,0.8171405848761647,-0.5388761276192188,0.032,0.6152891744697323,-0.5391653293576529,0.116,0.24497613477541189,-0.5245327323187816,0.418,beta1
"('Fp1', 'F3')",1.7632754377965346e-06,-0.5002294634502157,0.5002294634502157,0.9951725422397663,-0.5335727474194443,0.0,0.9914592880698633,-0.5200806902246203,0.002,0.9744904063953908,-0.5186572300701987,0.0,0.8904713867288349,-0.5047839930624238,0.006,0.7634329144964254,-0.4922449879450759,0.012,0.3522672291164053,-0.4881364177972069,0.276,delta
"('F7', 'C3')",1.3555666832044574e-06,-0.500112791014556,0.500112791014556,0.9491540584578118,-0.5932847677498215,0.012,0.9246847052867774,-0.5448316611916576,0.022,0.8699188498883367,-0.5564409400541318,0.048,0.7517588377972021,-0.5354607552190493,0.098,0.6515219568977618,-0.5219498883216945,0.166,0.391756932898763,-0.5091416905367858,0.366,alpha2
"('Fz', 'F4')",1.0584956040649014e-06,-0.49335720805058936,0.49335720805058936,0.9082372203695768,-0.6822031143490698,0.022,0.8391436211681288,-0.6478953257932943,0.062,0.7411834120833339,-0.650989834786901,0.126,0.6134600737309637,-0.6051682526134445,0.174,0.4996321035485371,-0.574369367851571,0.324,0.37829053826963244,-0.5590740138576851,0.518,alpha1
"('Fz', 'Cz')",1.611250133499585e-05,-0.4904033355530891,0.4904033355530891,0.969928996809723,-0.529201444287314,0.004,0.9419498038064571,-0.5125464149584376,0.016,0.9106982309573506,-0.505039247406695,0.022,0.8063532423123714,-0.49169635849625204,0.058,0.7542419105490736,-0.47524367451237826,0.108,0.48096359423175544,-0.4751886872946995,0.28,alpha2
"('F3', 'C4')",9.888868304129921e-07,-0.48997042378255784,0.48997042378255784,0.949275949997527,-0.5607985963526054,0.008,0.9307939951513968,-0.5489901224148566,0.01,0.891927931887844,-0.5311455735742994,0.012,0.7935186112795211,-0.5204672233576902,0.074,0.6704838330018795,-0.5108721319676789,0.124,0.32098067465825086,-0.5131718119865143,0.402,alpha2
"('C3', 'Pz')",3.133898320458594e-06,-0.48939297887973005,0.48939297887973005,0.9734885738838073,-0.5534392538140025,0.002,0.9532538153602385,-0.51875666254021,0.006,0.9297521558749929,-0.5132333533729422,0.018,0.8479017622953727,-0.5047989992312881,0.056,0.7178084775810906,-0.49176870126470346,0.084,0.400430571245463,-0.4919377649033323,0.306,alpha2
"('F7', 'T3')",3.93553366729682e-06,-0.4878642037031211,0.4878642037031211,0.9607661803827858,-0.56887189835947,0.004,0.9302649822849395,-0.5302924371736801,0.022,0.9015211003541866,-0.5232951642949119,0.022,0.8008842170734066,-0.5198390185168279,0.068,0.700590670578638,-0.506287602563291,0.122,0.4241410921626548,-0.4937713077733699,0.31,beta1
"('Fp1', 'F4')",9.047078802497225e-06,-0.4804747719581649,0.4804747719581649,0.9761025152337958,-0.5034939054579295,0.002,0.9569146492145522,-0.4940626494506485,0.006,0.9298873691397955,-0.48506360915531593,0.014,0.8467039459633612,-0.4888700557916016,0.04,0.7365108833036027,-0.4764472175238115,0.084,0.46124327929640235,-0.47874717475115386,0.252,beta2
"('Fz', 'F4')",3.074712442753827e-06,-0.4798878613270207,0.4798878613270207,0.9836993012305235,-0.5506683219889492,0.002,0.9422329519760178,-0.5482805147502624,0.01,0.9338049720375513,-0.5183371460685007,0.006,0.7990033276550894,-0.517581636729034,0.058,0.680283133844858,-0.5080610571580577,0.124,0.39384214046801863,-0.4950669021792606,0.308,beta2
"('T5', 'O1')",1.2126665195064237e-05,-0.47611925247627546,0.47611925247627546,0.9752307354520064,-0.5403050060104005,0.002,0.963794244297273,-0.5147979441810948,0.004,0.9332560750392651,-0.5034443051322808,0.022,0.8690156619315877,-0.486885187388041,0.028,0.7877408363911764,-0.4785449504687132,0.068,0.41626653782112016,-0.48772522018546066,0.272,beta2
"('F7', 'Cz')",1.750329707682662e-05,-0.47438577538845994,0.47438577538845994,0.9852520352559634,-0.504545224001824,0.002,0.9611231733588079,-0.47011656233610943,0.006,0.9279415385654521,-0.49838215747070447,0.014,0.860682597552841,-0.48100200121866427,0.032,0.773202115330257,-0.46165511734374715,0.082,0.5106429454377324,-0.4652950550011345,0.248,alpha1
"('F8', 'T4')",2.7906200010615315e-06,-0.4742817555380069,0.4742817555380069,0.9731075562295614,-0.5076543173735929,0.002,0.9540891242911911,-0.5048183548693059,0.008,0.9115912271830793,-0.4990509863502361,0.018,0.8323609369540965,-0.4967996611193557,0.044,0.6935640556812988,-0.5010821433220137,0.112,0.4394898574155468,-0.48304232388635465,0.272,beta2
"('O1', 'O2')",1.8060140582970434e-06,0.46997335661368095,0.46997335661368095,0.9480819979809784,0.578870238332019,0.01,0.918380717888096,0.5583338957889289,0.014,0.877858826816114,0.5389787815142871,0.044,0.7811598185802022,0.5224681769973742,0.076,0.6859374314181577,0.5110255087220201,0.158,0.4089459886397863,0.5088931729984627,0.354,delta
"('F3', 'C3')",2.36358677052683e-05,-0.46857288056826735,0.46857288056826735,0.9955535689560103,-0.4961683170028508,0.0,0.9837655356968908,-0.4663450219806477,0.0,0.9714557786615627,-0.4838722894360594,0.002,0.9278851264681881,-0.4562006720201489,0.006,0.8158232823379118,-0.4641319008928285,0.036,0.5443600349130661,-0.4535916279697055,0.15,beta2
"('T6', 'O2')",1.5692609473543514e-05,-0.4669655908834014,0.4669655908834014,0.9837238247726278,-0.5249291729260472,0.002,0.9653604940970564,-0.4971027697922381,0.006,0.9448997630787196,-0.4942614930743343,0.008,0.8873359348692894,-0.48404586327283866,0.016,0.7561214757455551,-0.4842442899433733,0.062,0.5061467679178399,-0.4649423039659736,0.214,beta2
"('Fz', 'T4')",6.447513717670184e-05,-0.4650890689095866,0.4650890689095866,0.9810159837618991,-0.47616758157347727,0.0,0.9718027246016531,-0.46150054147530645,0.004,0.9643968902134489,-0.4451515954259121,0.008,0.9179394333768697,-0.44405195677726556,0.018,0.8177791750548961,-0.4420555170404702,0.054,0.5897029422856296,-0.43765808248132443,0.136,alpha2
"('Fp1', 'C3')",7.954763135768239e-07,-0.4634705114840312,0.4634705114840312,0.970557727945017,-0.5781475062702607,0.002,0.9453242048844068,-0.5588799752335,0.012,0.8691052725606729,-0.5583624506863175,0.034,0.7766455411934837,-0.535713028391264,0.06,0.6191881773120064,-0.5269052364241312,0.172,0.3614204454489966,-0.5148676844687603,0.406,alpha1
"('Fp1', 'Fz')",4.81970142218967e-06,-0.4615705662340586,0.4615705662340586,0.9918276419946443,-0.5134948143079928,0.002,0.9863227257071834,-0.4908782319300987,0.0,0.960493011519839,-0.5003965659084172,0.004,0.8965872969837977,-0.4792976071088333,0.008,0.7772901764360486,-0.47559329134982165,0.034,0.42021869251609933,-0.47382096497070875,0.208,theta
"('F7', 'P4')",1.071227044896946e-06,-0.46133942975318715,0.46133942975318715,0.9570506913920352,-0.5390209381694303,0.004,0.9416876079138722,-0.5315225888919115,0.004,0.9210375008500669,-0.5193443592782264,0.024,0.805853045145841,-0.5057378975407771,0.068,0.6779817033578411,-0.5045901713119619,0.132,0.3463927003819005,-0.5086597496306152,0.394,alpha2
"('Fp1', 'C3')",2.502086011659732e-05,-0.4611764450646697,0.4611764450646697,0.9977047895175974,-0.46921618397959874,0.0,0.9887307898699064,-0.46747973806893905,0.0,0.9756697149016804,-0.4708872330267986,0.002,0.9332720248705062,-0.4553743655675183,0.006,0.8435832186980214,-0.4527498053312148,0.026,0.5424899797666604,-0.4497024918307704,0.162,theta
"('F4', 'T4')",8.055765844848508e-06,-0.4594012743027503,0.4594012743027503,0.9714468816233732,-0.5334688198101111,0.0,0.9573595460622497,-0.4971735513727339,0.012,0.9294268807732984,-0.491382599341428,0.018,0.854361222142818,-0.48384148763784873,0.044,0.7222322380144108,-0.4917898726837863,0.104,0.5040659456796275,-0.4660460999988331,0.224,beta1
"('O1', 'O2')",0.0001488378194944495,0.45688720761555623,0.45688720761555623,0.9841000728543295,0.4644749420619071,0.0,0.9756748070373026,0.4675913821800556,0.004,0.9531617927804511,0.4569656116732013,0.016,0.9102755919317447,0.442351717766393,0.026,0.8641621197750706,0.42872652784111903,0.032,0.6395333075169863,0.43073314742608615,0.12,beta2
"('Fp1', 'F7')",4.251918785438295e-06,-0.4562465344620901,0.4562465344620901,0.9672749715245421,-0.526159249066008,0.008,0.965064639970856,-0.5014122125115986,0.006,0.9179738621524085,-0.5035127843281161,0.024,0.8272059448338611,-0.5034783619719876,0.048,0.7066985276093422,-0.4929215623736625,0.114,0.4598593029691447,-0.4763458798211441,0.282,gamma
"('F4', 'Cz')",1.6814947644490992e-06,-0.4545185710165652,0.4545185710165652,0.968435259922073,-0.5588491674836434,0.0,0.9282664700029198,-0.5477876532505083,0.01,0.9087902728454583,-0.534441670068821,0.024,0.7932160420517471,-0.5242310458910432,0.05,0.6449634870441914,-0.517786974825528,0.144,0.39593128754335943,-0.4936264925907623,0.318,beta1
"('F8', 'Cz')",4.358164625500357e-07,-0.45447534989742017,0.45447534989742017,0.9582308786507019,-0.5840295036758666,0.004,0.9344195906387732,-0.5510366776107062,0.012,0.8891428122931093,-0.5450241919291448,0.03,0.7900733761324894,-0.5257962863745222,0.062,0.6507537654655318,-0.5219690023158416,0.144,0.325697959048323,-0.516038747787743,0.404,alpha2
"('F4', 'T4')",1.1617029439809393e-05,-0.4544679762121689,0.4544679762121689,0.972644515379653,-0.5193998235875139,0.006,0.9407270909504022,-0.5048372044674102,0.016,0.9139978306097668,-0.49171253665278525,0.024,0.8233095990088921,-0.4853880317119143,0.05,0.7430113967018358,-0.48130056532250165,0.094,0.5194256647517784,-0.46282718462349554,0.202,beta2
"('F4', 'T4')",0.00024144073457406,-0.4536406101691357,0.4536406101691357,0.9902139790548034,-0.451589673016135,0.0,0.9607098292260483,-0.4537065128886983,0.012,0.9508853821461831,-0.439831035385388,0.018,0.90416177925833,-0.4425836737982702,0.026,0.8509683150505055,-0.4378622796947325,0.05,0.7234879656934206,-0.4147344157287791,0.084,gamma
"('F4', 'F8')",2.833395657824129e-05,-0.4526975415326084,0.4526975415326084,0.9493886979533003,-0.5620302170946769,0.006,0.9206356476950985,-0.5295920165109739,0.016,0.8622899344393463,-0.5267042716180544,0.04,0.8195192548710225,-0.5056830947332145,0.066,0.7092284664071116,-0.4908343659805532,0.152,0.5585233074543487,-0.4689946148226174,0.25,alpha1
"('O2', 'Cz')",2.072023747592548e-05,0.45251658690385366,0.45251658690385366,0.9652065799009215,0.5429510553122514,0.002,0.944902247950623,0.5347248990868612,0.008,0.9269478781988852,0.4957477134275968,0.014,0.8449794984501608,0.48569581545746743,0.05,0.7399041353039778,0.47877220447237806,0.084,0.4891733942790675,0.4694160283855336,0.272,alpha1
"('Fp1', 'C3')",2.2111861282188074e-06,-0.4514430285159242,0.4514430285159242,0.9851837121494669,-0.5314769347964664,0.004,0.9767125953661747,-0.5103873506107822,0.004,0.9462367712664864,-0.5151366192196469,0.002,0.8317841862481627,-0.4980454973170826,0.046,0.7122918259703518,-0.4929176480575093,0.102,0.39058969321706294,-0.4900336911324753,0.31,delta
"('F4', 'C4')",2.3585302056084943e-05,-0.45139421763817716,0.45139421763817716,0.9736463713328021,-0.5383399495715876,0.008,0.9502441229534966,-0.5125338097755793,0.014,0.9446677808575729,-0.5068812720778175,0.016,0.8648484041466885,-0.4930599795062429,0.028,0.7461997332027881,-0.48797181400759,0.084,0.5655510413196545,-0.46282755454068114,0.192,beta1
"('Fp2', 'C3')",0.0001318678004152689,-0.45092580482557754,0.45092580482557754,0.9856506139289116,-0.46145080693562657,0.002,0.980525402406796,-0.4385995212130774,0.004,0.9674050342714773,-0.4524050916790011,0.004,0.9222239642047518,-0.43692819284381,0.018,0.8787753103563221,-0.4188854822137032,0.03,0.6468519814987319,-0.426567319536388,0.112,delta
"('F7', 'O1')",1.1945902017397616e-06,-0.44734791052152234,0.44734791052152234,0.9697104380056837,-0.5439076790537182,0.002,0.9430687362185622,-0.5232411582529918,0.014,0.9102737805867991,-0.5179351691240273,0.026,0.8176141205602129,-0.5004501155066315,0.054,0.6840455392991912,-0.5023087683751153,0.13,0.3437291211561389,-0.5037064939947186,0.334,alpha2
"('Fp1', 'Cz')",1.393506971021783e-05,-0.4470076376309402,0.4470076376309402,0.9834790319734815,-0.5071741310459904,0.002,0.9624855934449382,-0.49479498302626723,0.01,0.9344046815735744,-0.4973733065772451,0.012,0.8776359869817857,-0.47770331248681597,0.016,0.7578324990404638,-0.4743507235428328,0.076,0.5189674444529595,-0.46528011102101635,0.228,alpha1
"('F3', 'F4')",3.3758650193075545e-05,-0.4465214525809351,0.4465214525809351,0.9856361923757413,-0.4913353555462042,0.002,0.9716010290123515,-0.47906206504890486,0.004,0.9513163446717843,-0.4728871392580698,0.006,0.8794506063098438,-0.478245043734244,0.022,0.7890813876426633,-0.458767079664086,0.066,0.5537126400626747,-0.45300982502350345,0.192,beta1
"('Fp2', 'F8')",1.715376628274388e-05,-0.44547239477924727,0.44547239477924727,0.9883724384415283,-0.4927607363820503,0.002,0.9704862730302227,-0.488775223862374,0.002,0.9614572108277701,-0.46902264383590936,0.004,0.8865620782319069,-0.47194229323467113,0.02,0.8168337775063046,-0.4550347768461027,0.042,0.542934138456341,-0.4574795748088947,0.176,beta2
"('F4', 'T4')",6.0237582821934444e-05,-0.4453339148001091,0.4453339148001091,0.9760830580878394,-0.5197668770971711,0.0,0.9498211912546036,-0.47782929109178784,0.01,0.9390358644648029,-0.4642795415154096,0.006,0.8778345148321064,-0.45351547689470095,0.04,0.8008219783040991,-0.45990887919217033,0.086,0.5904684060195742,-0.44718937995557734,0.18,alpha2
"('O2', 'Pz')",1.249272824331135e-05,0.4444861278026794,0.4444861278026794,0.9829489419002909,0.5143910024967671,0.0,0.9567645995218563,0.500900188304563,0.01,0.9408466233332616,0.48407890350227334,0.014,0.8659526490008049,0.479718804733847,0.024,0.7627761680511661,0.4763068935354414,0.074,0.4673540401906495,0.4711971428113033,0.21,delta
"('F4', 'F8')",0.0001518454719322254,-0.4438728599172911,0.4438728599172911,0.9887904482293932,-0.4557686486384443,0.0,0.9844564839458124,-0.4411441270507867,0.0,0.9631217226710436,-0.43266661423790737,0.006,0.9255850748378112,-0.43657698125947547,0.014,0.8532930629377438,-0.4345216685296503,0.032,0.6773639835843495,-0.4195681702401918,0.098,gamma
"('Fp1', 'F4')",2.4827074597453663e-05,-0.4418769336068065,0.4418769336068065,0.9933753950485082,-0.49578186498601656,0.0,0.9832466498983184,-0.46209708371404534,0.002,0.962498610768894,-0.47675536609232905,0.002,0.8958980381787469,-0.46634210095822215,0.02,0.8057501653867564,-0.4578877890771077,0.032,0.5411044790920863,-0.45123093692293986,0.18,theta
"('Fp2', 'T5')",4.534604384806775e-05,-0.4416123427621984,0.4416123427621984,0.9688523585727693,-0.5060361195940819,0.01,0.94062062588361,-0.4990637233314097,0.014,0.9341993856848639,-0.48004941778438404,0.016,0.8472892533422117,-0.46958349904225827,0.034,0.7836427435878432,-0.4628249896028444,0.076,0.5678918293987559,-0.44536220431458584,0.186,alpha2
"('Fz', 'F8')",0.00029330145603619746,-0.44093395285848996,0.44093395285848996,0.9793304204069904,-0.4665658498016831,0.008,0.9728735976169333,-0.4426172969465693,0.002,0.9553874048699911,-0.43719070127641174,0.006,0.9029404226072318,-0.4387893372075202,0.024,0.8361860753765316,-0.43226524929993737,0.054,0.6820612241024375,-0.4153010208813452,0.11,beta1
"('F4', 'C3')",7.49176704670704e-05,-0.440754303987217,0.440754303987217,0.981580809796774,-0.479250935323047,0.004,0.9828706154822425,-0.4560015118547572,0.004,0.9713453258918348,-0.4558652324326732,0.01,0.9121073631336317,-0.44760599482329283,0.016,0.8149453220323595,-0.4475382629695615,0.054,0.6109566110899649,-0.4391296284243079,0.148,beta1
"('Fp2', 'F7')",0.00018665948611419064,-0.4379075251349317,0.4379075251349317,0.9901621892174828,-0.44471871420464687,0.002,0.9845417501475393,-0.42646692186879187,0.0,0.9679913310406805,-0.4421214668295018,0.004,0.916595609752406,-0.43602816955116896,0.026,0.8708744195078121,-0.420212628962507,0.03,0.6820773240123762,-0.41767528200093024,0.15,alpha1
"('F4', 'T3')",2.7893490640866323e-05,-0.4378230979500305,0.4378230979500305,0.9777621284347078,-0.48632035780270744,0.006,0.9742887556328156,-0.4571370118725509,0.006,0.9364617440272013,-0.4737120804573353,0.008,0.8773542379978566,-0.46030577785946636,0.024,0.80583928752342,-0.4472715881879734,0.078,0.5186686082994088,-0.4595201190559873,0.236,alpha2
"('F4', 'O1')",6.412287069560445e-06,-0.4373322474119307,0.4373322474119307,0.9941312870342494,-0.49532340645388706,0.0,0.9778147125136769,-0.4918461327936792,0.0,0.9440500876884214,-0.49010796129365847,0.006,0.8756433207955395,-0.4724448573622464,0.022,0.767702508291518,-0.4644425401640157,0.054,0.4556969594970877,-0.4692721765881697,0.238,alpha2
"('T4', 'C4')",9.2404981867602e-06,-0.43696414964774605,0.43696414964774605,0.9643407225044732,-0.5414771405284012,0.008,0.9525510908041465,-0.4932924674818725,0.012,0.9279080474483158,-0.4859439109809897,0.022,0.8557923372940512,-0.4869459531839476,0.04,0.7187784149230612,-0.4884094297022358,0.086,0.4848353920600987,-0.46871042280951897,0.238,beta1
"('F3', 'T3')",2.336733296910537e-05,-0.4369099505709908,0.4369099505709908,0.9663933488618919,-0.5142865055580339,0.012,0.9547311791178126,-0.5049102886739756,0.014,0.9113451910070599,-0.49999995303067457,0.032,0.8481357858335218,-0.48420327345161096,0.048,0.7459442017413238,-0.476431752878154,0.088,0.5341617046400661,-0.4655457191593684,0.23,beta1
"('Fp1', 'C3')",7.665080383462982e-05,-0.43580226476694517,0.43580226476694517,0.9796327864220915,-0.4896167133295328,0.002,0.976727826082845,-0.4513140266812977,0.004,0.9378913438756845,-0.4551614973339698,0.016,0.890449922969084,-0.4509928162439187,0.02,0.8317581114488581,-0.44554533491956566,0.052,0.6059847338683296,-0.43895167279322983,0.154,beta2
"('Fp1', 'Cz')",4.2023656961923305e-05,-0.43501574150693445,0.43501574150693445,0.9886462079025662,-0.4937973399907687,0.0,0.962766150490501,-0.465548804480005,0.006,0.9550733200786083,-0.46552693569614617,0.01,0.8746563361688957,-0.46479959843461216,0.022,0.7981371640032207,-0.45566984286091866,0.052,0.5683818609239011,-0.4490563776548142,0.18,beta2
"('F7', 'F3')",8.354471912811849e-05,-0.43472247597337504,0.43472247597337504,0.994829562882158,-0.4802008848919943,0.0,0.9902051409345497,-0.4493866899394754,0.0,0.9642984957131701,-0.47591465053162235,0.01,0.925328244765467,-0.46117699883229174,0.008,0.8654698871280079,-0.44779050644978036,0.016,0.6492541526235914,-0.43898480118401995,0.092,theta
"('F7', 'C4')",3.967289696308003e-05,-0.43415719623722726,0.43415719623722726,0.9752558092559449,-0.47290969669993127,0.006,0.975538341083141,-0.4534758855069897,0.008,0.9599730605166948,-0.4543160037804001,0.008,0.8931217899090294,-0.4537902354817538,0.02,0.8357590423107892,-0.44073559650839866,0.036,0.5630431768745315,-0.4525776054152564,0.186,alpha2
"('Fp1', 'C4')",0.00027284573821440136,-0.43355168338763983,0.43355168338763983,0.9931949388161319,-0.4293200913228219,0.0,0.9865416148858671,-0.41350293950716727,0.0,0.9694742632462571,-0.4280625698907751,0.004,0.9155635313174859,-0.4310151538118333,0.012,0.8536871098229603,-0.4243185032758433,0.034,0.6979478667478158,-0.4151995006130242,0.096,beta1
"('T6', 'C4')",2.5556082846533342e-05,0.4329646667867409,0.4329646667867409,0.9827269150609095,0.5199749550932672,0.0,0.9610853315370645,0.49773400278439417,0.006,0.9326443334292293,0.4906105662240036,0.018,0.8545872867588235,0.4819062896705113,0.026,0.7872484270766997,0.46265240593554874,0.078,0.5359679518832242,0.45534932144527535,0.192,alpha1
"('T4', 'P4')",7.395878450210312e-06,-0.4314590846456758,0.4314590846456758,0.939692655073676,-0.5560236965863292,0.004,0.9391030778419788,-0.5047407175740195,0.016,0.8900708007988464,-0.5159525136043662,0.03,0.8112329995334292,-0.49978426881099175,0.088,0.6810000255616047,-0.5058986594997782,0.15,0.4688636138146278,-0.4778862189388821,0.286,beta2
"('O2', 'C3')",0.00011183897921025575,0.4307461487940878,0.4307461487940878,0.9755577514380358,0.4941140820706838,0.004,0.9567625960614525,0.49462182828086354,0.012,0.9357207068571214,0.46837248773888707,0.006,0.8899467411729219,0.45231149464557713,0.032,0.8228588728551219,0.4391330249789458,0.056,0.6198662933986743,0.4377394190429728,0.144,beta2
"('F7', 'Fz')",5.966395658606411e-05,-0.4306537556282749,0.4306537556282749,0.9906066839551656,-0.48004702850014747,0.0,0.9870027168449739,-0.4436709207700998,0.0,0.9767161342318199,-0.44650130824085327,0.002,0.895869354658569,-0.45533593746484025,0.024,0.833278065714779,-0.4451927783652793,0.044,0.6093538313861088,-0.4358011226386631,0.122,beta1
"('F3', 'Fz')",0.00017794130902710025,-0.43065130312907307,0.43065130312907307,0.994400745341571,-0.45733065357236424,0.0,0.9823428944642528,-0.4429160549359757,0.0,0.9820251654617106,-0.44301691018957723,0.0,0.9297495895301074,-0.4406616573344361,0.01,0.8886208740407375,-0.4182925347680426,0.022,0.6626390284193099,-0.42455867810324616,0.112,beta2
"('F7', 'F4')",9.546779392376228e-05,-0.43047821313072954,0.43047821313072954,0.9672979201332909,-0.5029981204697357,0.006,0.9606389499003021,-0.45390739780780953,0.01,0.9347065992590214,-0.47292664541270424,0.026,0.8826803050612468,-0.44831118204286885,0.034,0.8049096230972329,-0.43729887273770807,0.078,0.6131585176201891,-0.4428038253766935,0.176,alpha1
"('F7', 'C3')",0.00010358101244052773,-0.430418594984533,0.430418594984533,0.9947684931836845,-0.4560152535160665,0.002,0.986002183656529,-0.4419488540205899,0.0,0.971537630207799,-0.45109234340697935,0.006,0.9294379529953856,-0.4383440151796736,0.006,0.8663745422209361,-0.4282551171657273,0.028,0.6279514668025672,-0.42707859893451167,0.12,alpha1
"('F7', 'T3')",0.00010485287075336983,-0.4261056407361005,0.4261056407361005,0.9802262686324527,-0.49977002583195307,0.004,0.9553797808529273,-0.46753331136559273,0.006,0.9382372724127703,-0.46610736354905735,0.006,0.8810503725320163,-0.4566309468102316,0.042,0.8274186814806203,-0.44230399611579163,0.066,0.6097257760443205,-0.4379753280726986,0.162,beta2
"('Fp1', 'T3')",0.0001798449958434198,-0.42482673568687346,0.42482673568687346,0.9816303856747648,-0.46702756423087594,0.0,0.9653764163767213,-0.47199361631194725,0.006,0.9369748049951694,-0.4645496326282496,0.01,0.893306646697935,-0.4450404272429024,0.04,0.8376180001453529,-0.4373696214412789,0.042,0.6533118836945465,-0.4244590934781139,0.136,theta
"('Fz', 'C3')",7.108238036558992e-05,-0.42437287126647866,0.42437287126647866,0.9853552319258104,-0.49265355959347845,0.0,0.9788492054425444,-0.45406907343094616,0.004,0.9439762347330917,-0.46536182611482546,0.01,0.8884527705610195,-0.4545249074047474,0.022,0.8346161010795035,-0.438598547393615,0.04,0.5811259967996677,-0.44561236831131035,0.182,alpha2
"('Fp2', 'Cz')",1.639428193550131e-05,-0.4241641552129133,0.4241641552129133,0.975345975062545,-0.5103686102541682,0.002,0.9664854215117428,-0.4827833938422446,0.004,0.9422130014562812,-0.48076001499191273,0.008,0.8725561864400164,-0.4745696315207117,0.034,0.794579065452593,-0.4629513872291514,0.064,0.5077431691395716,-0.4667701658637712,0.228,alpha2
"('T4', 'Cz')",2.80772319230552e-05,-0.42307490756521793,0.42307490756521793,0.9781466270612386,-0.5137688160931543,0.002,0.9734360693934482,-0.48277726055993586,0.002,0.9581988896500175,-0.47036509514743613,0.01,0.9123114453907412,-0.4554098763782453,0.018,0.8088167388131289,-0.4578787798544119,0.052,0.5499797384683172,-0.4516937199456281,0.174,alpha2
"('O1', 'C4')",0.0007625131284114827,0.4226151047710971,0.4226151047710971,0.9873188994918793,0.44741247212129476,0.002,0.9859676952043626,0.43259399152640593,0.006,0.9640794880694882,0.4188003379661169,0.014,0.9473415512406246,0.40928944300672826,0.008,0.8891806290152735,0.3974418416503852,0.032,0.718042078759068,0.4019446748584602,0.092,alpha1
"('T5', 'O2')",2.2810114875365226e-05,0.42171098501203097,0.42171098501203097,0.9738487629300336,0.518242353555766,0.0,0.931937582274407,0.5146191722830833,0.01,0.9045418015137833,0.5022561368228095,0.028,0.8337237179411301,0.48121611168680006,0.046,0.7743978486022043,0.46934045299435256,0.098,0.5435753388879944,0.46376258330271464,0.244,alpha1
"('F3', 'T3')",0.00021844688688267325,-0.4206572678339091,0.4206572678339091,0.9544554930866472,-0.5066431869319776,0.01,0.9290950453650593,-0.4885088995441686,0.018,0.9033439215047284,-0.4871614980402324,0.03,0.8695051652290584,-0.4595733037402891,0.042,0.7876400012835639,-0.45199766568120175,0.078,0.6530765998785059,-0.4327883166064736,0.154,beta2
"('F7', 'C3')",6.722672137215629e-05,-0.42023867065364645,0.42023867065364645,0.9874672394315634,-0.48118396612127995,0.002,0.9903570535801856,-0.4644490469308613,0.0,0.9724759171078802,-0.4556056669000395,0.004,0.9048637514022084,-0.44977118567872165,0.016,0.8565366285445123,-0.43963568376410855,0.04,0.6240863011821136,-0.4349895481179439,0.108,beta1
"('F4', 'T5')",1.1863290481922073e-05,-0.4201668870971167,0.4201668870971167,0.9828344286014125,-0.5079227198618838,0.0,0.9637137635956523,-0.488909141137642,0.006,0.9453583126004669,-0.4811210026682505,0.008,0.8876134845081649,-0.4710780760107594,0.03,0.7661211176874613,-0.4685752658476055,0.058,0.5045809692409456,-0.46648842845247845,0.23,alpha2
"('Fz', 'Cz')",3.566821220187398e-05,-0.41921405197467443,0.41921405197467443,0.9654889575569402,-0.5491716802252629,0.008,0.9433435500670027,-0.5232008661676794,0.014,0.8950389482136992,-0.5307551825546059,0.016,0.7936079711956475,-0.5100137663767184,0.066,0.7117657091193936,-0.48496016655425833,0.14,0.5329465221867108,-0.46931322320130786,0.272,beta1
"('F7', 'Fz')",0.0006269643805881988,-0.4171829707914087,0.4171829707914087,0.9930456162413874,-0.4257205503159956,0.0,0.9841811790951918,-0.40521034091483293,0.0,0.9678918253522355,-0.4246984041657736,0.0,0.9209290125323611,-0.4171130234727928,0.022,0.8958607639439826,-0.40705644057709056,0.018,0.7269233797614705,-0.3998925397592969,0.082,theta
"('Fp2', 'F3')",0.0015723149911757305,-0.4168064210189574,0.4168064210189574,0.9875490332773457,-0.4350065128374726,0.0,0.9849348831213165,-0.42311841922171284,0.002,0.9715481226160623,-0.41559616647500186,0.004,0.9280868443346313,-0.41188048874793426,0.016,0.9005425209541024,-0.394086174636786,0.024,0.7565053530753244,-0.3883906785827042,0.088,beta2
"('Fp2', 'F8')",0.00045991480139531856,-0.4164948244493691,0.4164948244493691,0.9888411829446848,-0.4477837861912426,0.0,0.9847892318001039,-0.4249741060689337,0.0,0.9814052648285843,-0.41801867590332425,0.006,0.9416531210823492,-0.42586904156669947,0.014,0.9118429858919873,-0.41021138708097243,0.012,0.7465241084178148,-0.40740303337312894,0.068,beta1
"('F7', 'F3')",0.0017813361150959537,-0.4153737795119091,0.4153737795119091,0.9845503131312647,-0.42615013208038344,0.0,0.9791615792893016,-0.4205342429676619,0.0,0.9839358938540811,-0.3959975656574275,0.0,0.9315746528704009,-0.4045556562945638,0.008,0.9020499868865725,-0.3983884125671124,0.032,0.7990804401606715,-0.3754780762058246,0.05,gamma
"('F3', 'C3')",0.00010568297371387899,-0.41437708587116245,0.41437708587116245,0.9887961803630784,-0.48845449825156995,0.002,0.9853065886255529,-0.45967615613808127,0.0,0.9625389500933237,-0.45707633056694713,0.004,0.9272806163553298,-0.442758000315367,0.006,0.8751442795133884,-0.43592315167212053,0.036,0.642372634746808,-0.4350739364247406,0.126,alpha2
"('T4', 'C4')",0.0003009478260118096,-0.41367692974663123,0.41367692974663123,0.9948144187213289,-0.47284054136188275,0.0,0.9898288591572147,-0.44297396707221,0.002,0.9857098779455923,-0.43654483009804484,0.002,0.9601108589466683,-0.42547038843048557,0.004,0.9134620115201061,-0.4187498630087295,0.01,0.7144070010541863,-0.4112172092111955,0.066,alpha1
"('F4', 'Cz')",0.0013264936687831606,-0.4136238159619257,0.4136238159619257,0.9823106254812536,-0.44773574437724495,0.0,0.9704874395316769,-0.4322933280824447,0.01,0.9452603050052724,-0.4491968642252147,0.016,0.942410857883822,-0.4133965049632624,0.008,0.8596189252930774,-0.40606187833324725,0.04,0.7490644107246159,-0.39660931642406394,0.088,alpha1
"('F3', 'Cz')",0.0011882971717590103,-0.4131021888037346,0.4131021888037346,0.9922046889311417,-0.4380225747924924,0.0,0.9705057348913718,-0.4201642558649259,0.006,0.9677710970232299,-0.4230720415801634,0.002,0.9406460950507031,-0.41229957169357034,0.01,0.9015193390383806,-0.4008473592417168,0.018,0.7550286642319738,-0.40090072600795645,0.082,alpha1
"('F8', 'T4')",0.0009942784733868524,-0.4127286401163611,0.4127286401163611,0.9932613135668943,-0.42864248175654307,0.002,0.9839794926995655,-0.40846191936105103,0.002,0.9741998547255152,-0.4139306411429975,0.0,0.9512723485525136,-0.4075403553983577,0.002,0.9002278555759926,-0.4081732633445667,0.016,0.7820956625092553,-0.3881754740249006,0.064,beta1
"('T4', 'P4')",0.004873889230178974,-0.4121536017035446,0.4121536017035446,0.9766332205227313,-0.4757270022745167,0.008,0.9634382787431888,-0.4265699867279297,0.006,0.9438241429772598,-0.41684174123656487,0.018,0.9029050816721705,-0.4127729776123464,0.03,0.8601608830988903,-0.4102238094327445,0.042,0.7829996306762645,-0.3779851522773613,0.088,beta1
"('Fp1', 'C4')",0.0006299847049422633,-0.40949894907122797,0.40949894907122797,0.9917317695604209,-0.42200095155881456,0.002,0.9902114221769828,-0.406108255663567,0.0,0.9813023500382192,-0.41253381314139054,0.002,0.9415874561255803,-0.4073101338637174,0.01,0.8987079077934021,-0.4040333908573932,0.022,0.7588866781552793,-0.3972659919215591,0.064,theta
"('Fz', 'C3')",0.001140475063657079,-0.40892987684256016,0.40892987684256016,0.9889058271063169,-0.450349551558298,0.0,0.9830352315211623,-0.41044738874854686,0.002,0.9685141271952502,-0.42835493647612705,0.008,0.94119801796962,-0.4151213494267376,0.012,0.866628214682487,-0.41095231675749383,0.03,0.7509765691314044,-0.39742837835149275,0.084,beta1
"('T4', 'C4')",0.0010304637730469152,-0.40777615129782063,0.40777615129782063,0.9962904876322568,-0.44105164728963026,0.0,0.9973907928217708,-0.4080376941614224,0.0,0.9943437240671801,-0.4118811406930876,0.0,0.9751767153302119,-0.40528133448396875,0.0,0.9590026523109705,-0.40045033778670114,0.002,0.7951943196054437,-0.3952622832826514,0.036,theta
"('P3', 'Pz')",5.7341894936258535e-05,-0.4068180916730545,0.4068180916730545,0.981476319738183,-0.51946402622517,0.004,0.9594802852064332,-0.4948020731148443,0.01,0.9117449808091395,-0.49892558208225574,0.022,0.860324362294868,-0.469651579939601,0.028,0.7842762437115317,-0.46134277307669913,0.068,0.5388728616736873,-0.46064612600498517,0.232,alpha2
"('F3', 'Cz')",0.00045260730931858854,-0.40597526863847555,0.40597526863847555,0.993254771433441,-0.4405430719967599,0.0,0.9863733760189427,-0.42932484494480605,0.002,0.9747326745440394,-0.4367723244077532,0.002,0.9242479853572261,-0.4229013171673869,0.016,0.8899691380538897,-0.41554704283912547,0.032,0.7134065716783617,-0.414702338432671,0.11,beta2
"('O1', 'O2')",0.00027350177569705194,0.4058943442996309,0.4058943442996309,0.9731262907756547,0.5096748319071719,0.01,0.9507078349724593,0.48627208110533027,0.012,0.9303009760022992,0.4673801574607939,0.014,0.8762260990716317,0.45241051256084425,0.05,0.7990985404999867,0.4348287179393028,0.07,0.6367227641563763,0.43544146865655436,0.168,theta
"('O2', 'Cz')",0.00013721260581789948,0.40529892385978805,0.40529892385978805,0.9626645393357784,0.4962088376527999,0.01,0.9502882342815072,0.5010512064878799,0.012,0.9188514722039872,0.47418988793571676,0.016,0.8559569156285037,0.4606446489515862,0.042,0.813764960388731,0.45517462003577563,0.076,0.6142407706450561,0.4404703052212211,0.154,beta2
"('F8', 'C3')",0.00015584520703051602,0.40489366291205825,0.40489366291205825,0.9899370746643877,0.46280525549741935,0.0,0.9720225809083318,0.46589355680187916,0.008,0.9637582848398761,0.45064116441439767,0.006,0.923885522623062,0.4288557420602296,0.026,0.8551296059029331,0.42773779466325235,0.03,0.6301856549230811,0.4301124452458554,0.138,gamma
"('O2', 'P3')",0.00037751012844486413,0.4043408878815299,0.4043408878815299,0.9784762123999043,0.48983378605875183,0.004,0.9588230026561262,0.47920938140893554,0.01,0.9145016462563441,0.47202355917773786,0.02,0.8863007384132735,0.4415149039359446,0.018,0.8341178176759442,0.4350202220211295,0.05,0.6830691383456602,0.42449615120011486,0.146,beta2
"('F3', 'C3')",0.00012031051449034793,-0.4027516615528531,0.4027516615528531,0.9955180885939504,-0.4572927128500221,0.0,0.9927759484836257,-0.4557785123657196,0.0,0.979310210502491,-0.45923445291298637,0.002,0.9340285972057567,-0.46364427563455823,0.01,0.8839995131056585,-0.4491185092993819,0.014,0.6558607125366311,-0.43516804376732704,0.078,delta
"('Fp1', 'C3')",0.00011458332012675906,-0.40269395233896405,0.40269395233896405,0.9776942976471238,-0.49039579451179943,0.0,0.9692893641461753,-0.46519026459858676,0.0,0.9462674335228043,-0.4637157065026645,0.012,0.9044539844069218,-0.44561910877700406,0.022,0.8324126934009617,-0.43940814234356235,0.066,0.6202965188505096,-0.44182494332693195,0.172,alpha2
"('O2', 'P3')",0.0001969151444740897,0.4010245281654411,0.4010245281654411,0.9905999142142757,0.4537832372188346,0.0,0.9847661289761579,0.45732734135454445,0.004,0.9731578108338783,0.4454804104625356,0.006,0.9256070347715213,0.4308467307338069,0.012,0.8718932798851989,0.43241829865670556,0.034,0.670662754054437,0.42038909449074346,0.094,delta
"('Fp2', 'Fz')",0.0016279111028073296,-0.3999586484655024,0.3999586484655024,0.9926228306775858,-0.4634239602314372,0.0,0.9847058803625549,-0.439539905733867,0.002,0.966865549019848,-0.45244670908043855,0.002,0.9513097635858645,-0.41772607220914815,0.004,0.8763477823592407,-0.40322576133200777,0.012,0.6997773953034283,-0.4007108206603525,0.102,theta
"('Fp2', 'F4')",0.0008140219609213015,-0.39936921424640504,0.39936921424640504,0.9903050680276275,-0.48609951250335603,0.0,0.9805653111400027,-0.4546490572020942,0.002,0.9533842565246924,-0.46078984188365313,0.008,0.9167487341343097,-0.4287583243227329,0.016,0.862204188472088,-0.4177408725001834,0.026,0.7047138653338111,-0.41270709836211766,0.118,theta
"('C3', 'Cz')",0.0009358161682074364,-0.39874773337047487,0.39874773337047487,0.9855978286847853,-0.4774706017632503,0.002,0.9809456419966786,-0.4430417659896066,0.004,0.9586496498613927,-0.4576077856878382,0.012,0.9184750336293193,-0.43459867422465526,0.02,0.8658677167332973,-0.438428268317052,0.036,0.7380307299135921,-0.4161786199750052,0.09,beta1
"('F7', 'T3')",0.00043141050964722526,-0.39777219819218607,0.39777219819218607,0.9808970395419301,-0.4730837356298684,0.004,0.9819391810471535,-0.42486689292309904,0.002,0.9541803188298176,-0.43308804325432976,0.002,0.9334385655977592,-0.42035593297560075,0.012,0.882413589264896,-0.4131846280164857,0.03,0.703599547072876,-0.4119486038165288,0.106,alpha2
"('Fp1', 'T3')",0.0014950724047842257,-0.3973400100722059,0.3973400100722059,0.982235726643455,-0.4433172138503848,0.0,0.9807469084308259,-0.42504566229446605,0.006,0.9523202959676496,-0.43197311808179517,0.006,0.9129093067637271,-0.4141570731570573,0.018,0.8616704671660999,-0.40448655965392566,0.036,0.7070645245774618,-0.40197416518094253,0.13,delta
"('F3', 'F8')",0.00023324831972712588,-0.3966945234246982,0.3966945234246982,0.9860527230983246,-0.4654262166641361,0.002,0.9715675878095938,-0.4496715037145546,0.0,0.9623918769183942,-0.4500985213926024,0.002,0.9080111439102906,-0.4440199331437359,0.02,0.8560986652338943,-0.42017293250656085,0.044,0.7004745495895737,-0.4168590067152889,0.12,alpha1
"('F3', 'Fz')",0.0004224512732935068,-0.39568043811659337,0.39568043811659337,0.978858813265701,-0.45964014225106575,0.002,0.9830652430493834,-0.4247119842687403,0.0,0.9660800493504063,-0.43199924740780776,0.004,0.9114916968915329,-0.42717892064392465,0.02,0.8863375135613337,-0.4133075216926607,0.022,0.7018833793450892,-0.40843558507075495,0.09,theta
"('Fp2', 'T4')",0.003148154049298131,-0.39442513381593175,0.39442513381593175,0.9951572933240223,-0.41755092951678663,0.0,0.9889202237361704,-0.41702599029902804,0.0,0.9858930850113409,-0.37687922679627517,0.002,0.9600007366618049,-0.3831263097824739,0.002,0.946845847457677,-0.37346122378222824,0.008,0.820311192470362,-0.37252469453946885,0.052,delta
"('O2', 'C4')",0.0008931072833162205,0.3934951741667215,0.3934951741667215,0.9886876967829342,0.44692461197331346,0.0,0.9843642542788824,0.4266123644725307,0.002,0.9725664201180416,0.40930190047001125,0.004,0.9423031675623575,0.41327454068019587,0.012,0.9238265234939188,0.3986437519348936,0.01,0.7500129488877862,0.39651514823093315,0.054,alpha1
"('Fz', 'C4')",0.00096314005115612,-0.3931046923548254,0.3931046923548254,0.9776186843263893,-0.47704603050064115,0.006,0.9621089642235507,-0.4463218006856712,0.008,0.9356271019535385,-0.44272179651694216,0.008,0.903327534933049,-0.42955816508034567,0.03,0.8828271687156262,-0.40750569160709205,0.038,0.726930622328624,-0.41223088100817246,0.108,alpha2
"('Fp1', 'T3')",0.0002211143174479076,-0.3923707792168438,0.3923707792168438,0.9937853000018662,-0.4590037090517008,0.0,0.9796590797720078,-0.436989337496146,0.004,0.964404406212688,-0.4525117265360001,0.008,0.9071431946357555,-0.4422608192856993,0.022,0.8535232307461397,-0.4262022022969877,0.046,0.6627679822080531,-0.4254509458653636,0.126,alpha1
"('Fp2', 'C4')",0.004260044460243495,-0.39209605663774283,0.39209605663774283,0.991383805964361,-0.4111980256397501,0.002,0.9808610590065502,-0.39388138758268687,0.006,0.9779913945775339,-0.3882024145402427,0.002,0.9366169901522357,-0.3890991151845269,0.016,0.9210152729814914,-0.37764011253035634,0.01,0.81114451292662,-0.37313970570999755,0.066,beta2
"('Fp2', 'F8')",0.012328746326891817,-0.3906884641151386,0.3906884641151386,0.9970877355191323,-0.43762086210734186,0.0,0.9776446882513963,-0.413821915129513,0.006,0.970376725932246,-0.4034686330841751,0.006,0.9549126140655027,-0.3908006653416587,0.004,0.9297952870504246,-0.3671748686966372,0.022,0.8428567752189867,-0.35962635526954323,0.048,alpha1
"('T3', 'P3')",0.0014261566345569697,-0.38967565136151205,0.38967565136151205,0.9809173364718565,-0.45199912836824957,0.0,0.9750328634525463,-0.420452094581195,0.002,0.9681455196870784,-0.4202713301535659,0.006,0.9085776942576748,-0.4185064732539957,0.028,0.8853929441126879,-0.40438610486253074,0.016,0.7708558136692325,-0.395259568637815,0.084,beta2
"('F4', 'O2')",0.0005906286446527453,-0.3888193089388127,0.3888193089388127,0.9854931903417735,-0.45708368349130274,0.0,0.9724939015396848,-0.43793068300052923,0.004,0.9603225174915846,-0.4363721937992194,0.006,0.9184280070640208,-0.4175734075584883,0.018,0.8973850753161481,-0.4041075432201469,0.024,0.7155409112126304,-0.406980958401696,0.086,alpha2
"('T5', 'O1')",0.0003822232485775438,-0.38838667455414444,0.38838667455414444,0.9914277225776383,-0.4520219161068729,0.0,0.9908251982620341,-0.43019207969136736,0.0,0.9789605091814516,-0.4264998210746799,0.0,0.9348066242826181,-0.4193474271165474,0.01,0.8862091035934481,-0.4168817150291904,0.022,0.6647397817860002,-0.42492317106188565,0.094,gamma
"('Fp2', 'F4')",0.00026313736012963275,-0.3880224106910913,0.3880224106910913,0.9975386462865112,-0.4499533775245075,0.0,0.9913011434899444,-0.44639555255972074,0.002,0.9801938638785592,-0.43946257185490023,0.0,0.945115205281737,-0.4282399956091411,0.006,0.9025897701283226,-0.41049630085299016,0.0,0.6718406194629711,-0.41867202168035084,0.122,delta
"('Fp2', 'Cz')",0.0007986937751607235,-0.387943756708496,0.387943756708496,0.9805662847311383,-0.4665319744809414,0.0,0.9543214883846705,-0.45276353004052333,0.008,0.9426409174300934,-0.4483184905309096,0.024,0.9128095492574347,-0.42683613305545504,0.024,0.8582199090189038,-0.40945279285012687,0.046,0.7138411483633774,-0.4033988024135651,0.108,alpha1
"('Fp2', 'C4')",0.003133446951238986,-0.38686882176178133,0.38686882176178133,0.9868012288100921,-0.4188592081833676,0.006,0.9848075749675825,-0.4031456764779447,0.0,0.9808283177270544,-0.4019344894847811,0.0,0.9616426138630287,-0.3858060089180114,0.006,0.9244677115620796,-0.38045221222203385,0.018,0.8267020892312901,-0.3715331255328854,0.036,theta
"('F8', 'Cz')",0.00775160936635749,-0.3858779091039668,0.3858779091039668,0.9887538565198623,-0.41101876547961624,0.0,0.9788565841789415,-0.39266127401247597,0.002,0.9730471607062692,-0.4110982908271693,0.006,0.9509727147291114,-0.38642714411264084,0.008,0.9064003287685003,-0.3673218984125911,0.03,0.8383475667178375,-0.3581725625098312,0.046,alpha1
"('Fp1', 'Cz')",0.006693277604675487,-0.38522448883152133,0.38522448883152133,0.9963599293352939,-0.4044928220476807,0.0,0.9916757174928696,-0.3814515344037351,0.0,0.9830862784550823,-0.39150336366698063,0.004,0.954755949357339,-0.37956026178135416,0.004,0.9279522935403759,-0.3690136746866645,0.012,0.8279250968730898,-0.36414952266409045,0.03,delta
"('Fp1', 'F3')",0.0004146100993396265,-0.3844985276436579,0.3844985276436579,0.9827005821810026,-0.451887079087047,0.002,0.9802849727453041,-0.437724939341429,0.002,0.9607561244186417,-0.4270393481760204,0.006,0.9167076089600298,-0.42793061032768454,0.018,0.8581122721141962,-0.42203954634288565,0.032,0.6806510039153346,-0.4164304869348834,0.112,gamma
"('Fp2', 'Cz')",0.0012359604010615825,-0.38386434553156634,0.38386434553156634,0.9818464705707765,-0.44832480768834526,0.002,0.9669293124899584,-0.4244793718215317,0.01,0.9588189941399066,-0.41969980025303666,0.008,0.9219159062066902,-0.41455705701786627,0.014,0.8899501189891729,-0.3957233418926561,0.034,0.7414482135026165,-0.39100648271485616,0.102,beta2
"('O1', 'Cz')",0.0002926248762021203,0.3837997330761951,0.3837997330761951,0.9860582394219339,0.45820674109027754,0.002,0.9688370974101114,0.462614827724096,0.002,0.9560678389400932,0.4456101606493142,0.008,0.9265187430079753,0.42390305648262666,0.012,0.862938667812446,0.42249431930939263,0.042,0.6558520935291963,0.4222230111544661,0.126,alpha1
"('T3', 'P3')",0.0042586759198124545,-0.3830370991184652,0.3830370991184652,0.9917243675008778,-0.40860360179326816,0.0,0.9912337334500028,-0.3871390325327565,0.002,0.97941824939071,-0.38797344350780927,0.002,0.9533312918488789,-0.3952681867934168,0.01,0.9222312192713028,-0.3713565936370577,0.006,0.8062387251318245,-0.3731593832110358,0.048,beta1
"('F4', 'C4')",0.0005499532668825984,-0.38262477980112186,0.38262477980112186,0.9838153821911897,-0.45902128193703984,0.0,0.9777041099701306,-0.44191747473354287,0.01,0.9509986231359389,-0.43755458473385744,0.004,0.9317845546244432,-0.4235376971008013,0.014,0.8733092705790433,-0.4136454877632231,0.03,0.6972722811749856,-0.41767703488230945,0.112,alpha2
"('Fp2', 'F3')",0.00042165350094984435,-0.38232823190371307,0.38232823190371307,0.993093081346388,-0.4712302744191938,0.0,0.9859204547270509,-0.44002697614925895,0.0,0.9690453858679265,-0.4516872711704737,0.002,0.931680693522344,-0.4323638447331793,0.008,0.9052956673340026,-0.411238897013014,0.02,0.7048207455820086,-0.41334360424758193,0.098,theta
"('Fz', 'C4')",0.0029087083005653173,-0.38227826094452105,0.38227826094452105,0.9965635359653698,-0.4219351349733298,0.0,0.9836991075020001,-0.3931953008960594,0.004,0.9741037794429788,-0.4154795878420471,0.008,0.9661992794003039,-0.4008093085411523,0.002,0.9218634065895746,-0.3973290013980663,0.014,0.8345574746669018,-0.3772774257792683,0.03,beta1
"('F7', 'Cz')",0.003326884095503231,-0.38221914789763567,0.38221914789763567,0.995292396712396,-0.4248682775514347,0.0,0.9944017902221642,-0.39115475136439565,0.0,0.9864408861442637,-0.38906746163544154,0.0,0.9481022355199917,-0.3930785235318969,0.004,0.9129482011062978,-0.37541715373095375,0.024,0.779595585945078,-0.37851940400585454,0.066,beta1
"('T3', 'C4')",0.004223661707000129,-0.3818424328130795,0.3818424328130795,0.9873122670884885,-0.42457268161245876,0.0,0.9896107339483818,-0.3948732300135798,0.002,0.9718390574116443,-0.39605656143836165,0.002,0.9438408537394664,-0.3827562541255473,0.018,0.8936949462251603,-0.3844208700390294,0.034,0.7810427968863263,-0.3864099458868449,0.064,alpha2
"('Fz', 'F8')",0.00016073317087716944,-0.3808488311044066,0.3808488311044066,0.976834362549533,-0.5163778036511195,0.002,0.9474680414867869,-0.49317720686922933,0.01,0.9096795817496797,-0.493328277565412,0.024,0.8621859789141687,-0.47154070802298664,0.036,0.7876960031508315,-0.4525617517899048,0.098,0.6424592197563403,-0.4346828953599844,0.182,alpha1
"('T6', 'O1')",0.002967380022858567,0.38074271636565776,0.38074271636565776,0.9835851086033337,0.4496132403422616,0.006,0.9765431156487628,0.4417041745511272,0.004,0.9575472148604276,0.42629560239106634,0.004,0.9210585356380353,0.4134188656985417,0.022,0.8825699963343534,0.3869232113225662,0.032,0.7615526840151997,0.3872882167336663,0.112,alpha1
"('O2', 'C3')",0.001756606719334861,0.37489178381982896,0.37489178381982896,0.9677867651658875,0.45835943057263845,0.004,0.9717139156299384,0.4537717456025173,0.008,0.9608328552012967,0.40824469517576395,0.006,0.9209973745370623,0.40630998934366497,0.028,0.8959158862587003,0.39844178843074035,0.032,0.7663520225551009,0.3935621111474424,0.082,alpha1
"('Fp1', 'C4')",0.004830336801443855,-0.37355292544713325,0.37355292544713325,0.9966010277742704,-0.3861132702278886,0.0,0.9915970213483309,-0.3676161481171658,0.002,0.988641134716946,-0.3803211140160861,0.002,0.9742602085303225,-0.382420736347584,0.0,0.9228273654441801,-0.3780690718382399,0.006,0.8478241551632153,-0.36372546921631954,0.042,alpha1
"('F8', 'Pz')",0.00196886744985194,-0.37241109032778824,0.37241109032778824,0.9936622340475976,-0.42075987877569004,0.0,0.9931841398225514,-0.39061321369564667,0.0,0.9790207549722331,-0.38754414238839846,0.002,0.9480458252140733,-0.39704813346360024,0.01,0.9208448836094016,-0.3764226054667966,0.018,0.7954577924584185,-0.3797738460655039,0.076,alpha2
"('Fp2', 'C3')",0.0035285327771844258,-0.3714670185175365,0.3714670185175365,0.9981332886837049,-0.4002087818443501,0.0,0.9942486625269178,-0.40414863649623584,0.0,0.9819772927011844,-0.40053873832933945,0.006,0.9657189171983194,-0.38744358697011133,0.004,0.92845883259903,-0.3750427941376533,0.006,0.8195635251831623,-0.3718649752182682,0.05,theta
"('F3', 'T3')",0.017149095715492235,-0.37100247911724327,0.37100247911724327,0.9835854552928274,-0.44883510535990245,0.0,0.9708186256306927,-0.4288992515297465,0.006,0.9421220628087112,-0.42876371196038804,0.008,0.9047917841680063,-0.393133745700173,0.012,0.8462864591246956,-0.39603751292992684,0.048,0.811355293227396,-0.3731842245370863,0.102,delta
"('Fp2', 'Fz')",0.02119161631397069,-0.3709174812263769,0.3709174812263769,0.9974002836121024,-0.4007773267922539,0.0,0.995429334956214,-0.3670212207115357,0.0,0.9912068028189989,-0.380915904591,0.0,0.9809684807303722,-0.36015699227809145,0.0,0.9671512990721762,-0.3433957893555815,0.0,0.8654359831746079,-0.3500410885241555,0.026,delta
"('F7', 'F3')",0.01708678099088429,-0.36871940366556055,0.36871940366556055,0.9945440621486786,-0.38049292810057694,0.0,0.9910937018506788,-0.3341163933579063,0.0,0.9851298306835145,-0.367341546834583,0.002,0.9756386195188016,-0.3580315513555747,0.008,0.9649411062274116,-0.3433267669243831,0.006,0.8959632526511672,-0.3391282805850933,0.014,delta
"('T4', 'O2')",0.017084859076113724,-0.36865707718602675,0.36865707718602675,0.9774575495242982,-0.4416952742629461,0.008,0.962599804521877,-0.4094961352450673,0.006,0.957018467769767,-0.39471544262116903,0.016,0.9179044267068965,-0.3930687602261188,0.042,0.8874969901916178,-0.37976247520406703,0.048,0.8182077992509903,-0.36391584901866286,0.068,beta2
"('O1', 'P3')",0.019532567293286784,-0.3685605956876484,0.3685605956876484,1.0,-0.37077942655748164,0.0,0.9975231366360023,-0.34663501435021365,0.0,0.997806078612541,-0.3488889164459677,0.0,0.9874933359522432,-0.34861454077128484,0.0,0.9628523231919626,-0.35390588194193384,0.008,0.9123710108505196,-0.3498138440461025,0.014,gamma
"('F4', 'Pz')",0.0007306168188385011,-0.3668090664699826,0.3668090664699826,0.9827144543342234,-0.4438414572947184,0.002,0.9808445555036734,-0.41725910885235057,0.004,0.9723049930935184,-0.42045437210518255,0.008,0.9203423424686485,-0.4158045487699347,0.018,0.9009858105993666,-0.4000488758009881,0.026,0.7242664338122355,-0.40402129480098853,0.08,alpha2
"('T3', 'P3')",0.001292593107068365,-0.3650220124887144,0.3650220124887144,0.999184915805324,-0.42783470418693476,0.0,0.9912593263892505,-0.4010835587839204,0.0,0.9903990864008916,-0.38461332416777877,0.0,0.951141365075866,-0.4052538271153167,0.004,0.9325934239124586,-0.3905601440680907,0.01,0.7798353684778296,-0.3893496188663939,0.056,alpha2
"('F3', 'C3')",0.04461034263542912,-0.36490539825475,0.36490539825475,0.996100814907226,-0.3446933262686415,0.0,0.9978741005157304,-0.3325300332581732,0.0,0.995332015556683,-0.3571437442297924,0.002,0.9827128421748305,-0.34266405218598806,0.002,0.9796765136902702,-0.3314592051440263,0.002,0.9307703673684319,-0.32758995494804544,0.014,alpha1
"('F4', 'Cz')",0.0037759374153730403,-0.36475730859876176,0.36475730859876176,0.988828703222406,-0.4327928133310877,0.002,0.9759313497674056,-0.4309295192707509,0.0,0.9617934902846131,-0.42065395407727374,0.002,0.9334774059104733,-0.40138139331396067,0.008,0.8810490335551073,-0.3971720767322417,0.028,0.8063724424267423,-0.38042482561931673,0.07,beta2
"('Fp2', 'C4')",0.004927784906225167,-0.3645313064453248,0.3645313064453248,0.9900925274328044,-0.4119952730125573,0.0,0.9844809649209776,-0.39304093155073977,0.002,0.9768405051143351,-0.389813467133331,0.0,0.9514791111946023,-0.3788006053961093,0.006,0.925643350113022,-0.376439066379667,0.014,0.8203964033163427,-0.37142988939463906,0.042,alpha1
"('T3', 'P4')",0.02334068696030083,-0.36410086367208583,0.36410086367208583,0.992908954107725,-0.36954951282195825,0.002,0.9933680776240951,-0.3312854058336085,0.002,0.9881569393379939,-0.3671312224207339,0.004,0.9657575520498113,-0.34459921160565016,0.006,0.9341830467163001,-0.3557256250906975,0.008,0.8571728108414328,-0.35047856880944295,0.016,alpha2
"('T6', 'P3')",0.0006500968304809544,0.3622282192340247,0.3622282192340247,0.9677079991541331,0.5007706763082018,0.006,0.9698540334523182,0.4731551844993965,0.008,0.9418181479104004,0.45556381573113836,0.018,0.8740638469032465,0.44690792292240494,0.024,0.8222035505523079,0.4318007006796036,0.08,0.6937178907628877,0.41508266363476143,0.132,alpha1
"('F8', 'C4')",0.04417649531124603,-0.36173395834081956,0.36173395834081956,0.9968045171087712,-0.3701730550263793,0.0,0.9943983061223947,-0.34111533707654434,0.0,0.9897665119611958,-0.3398970204074359,0.002,0.9623220723817829,-0.3489349347481576,0.004,0.9570378480496283,-0.3359925526792711,0.006,0.9085891542427729,-0.3257847929542966,0.02,beta2
"('F7', 'T6')",0.0013686160958629868,-0.3601144342315467,0.3601144342315467,0.9857248696765103,-0.448958709795534,0.002,0.9794467261994144,-0.4130012172235178,0.004,0.9641226159152647,-0.4072873206166588,0.006,0.9235970542929401,-0.40382797374334173,0.012,0.8950874423038057,-0.4064475230158741,0.032,0.7550062693419447,-0.3974474340585269,0.084,beta1
"('Fz', 'T4')",0.017220510244546808,-0.3595715404283452,0.3595715404283452,0.9934399688463698,-0.3807780393129694,0.002,0.9945733202966026,-0.3567909636785022,0.0,0.9771957714561292,-0.35819570877266155,0.002,0.9636567212549941,-0.36000276566571715,0.004,0.9379043012270742,-0.36091561928661514,0.01,0.9019978010108028,-0.3376055196637515,0.028,beta1
"('Fz', 'F4')",0.001858091805609487,-0.35705280399494344,0.35705280399494344,0.9882579319883776,-0.4057903619377497,0.002,0.9790529842431622,-0.3891175042766774,0.002,0.9688516208838232,-0.40590353581752747,0.006,0.939613048509163,-0.4014406877149291,0.018,0.8961235568841311,-0.38556959590200124,0.02,0.8034715556416548,-0.3788456179578722,0.052,theta
"('Fp1', 'T5')",0.004288093834662394,-0.3523086589902384,0.3523086589902384,0.988960390952077,-0.4117845282029266,0.0,0.9686728268087496,-0.4231367082705968,0.008,0.9608667136888966,-0.4025854919179924,0.0,0.9361607327438194,-0.3880982571408383,0.024,0.8913530858750316,-0.3850404312083386,0.032,0.8205491942109131,-0.3724538724828785,0.058,alpha2
"('F3', 'Pz')",0.04452554471041762,-0.35185899790044667,0.35185899790044667,0.9965990932228064,-0.3771562407088917,0.0,0.9919931161553434,-0.32770494919757714,0.004,0.9805721670110215,-0.35222765147167645,0.0,0.97236352298808,-0.3343130690828049,0.004,0.9617120069694254,-0.3297665213950882,0.01,0.91679241201557,-0.33184289661954336,0.02,alpha2
"('T6', 'Cz')",0.02460250886389972,0.3517501186600282,0.3517501186600282,0.9866729843248927,0.4095763906731874,0.0,0.9845470626463514,0.3981215681865463,0.002,0.9778766560577014,0.3714610347547227,0.004,0.9421910940672318,0.37409512682256785,0.012,0.9248273425352811,0.35282909706007576,0.014,0.8549642418710035,0.34698824884923263,0.052,alpha1
"('T6', 'O2')",0.0031576448663345044,-0.3514324382285332,0.3514324382285332,0.9968765692237922,-0.39065857303684576,0.002,0.9944238703322484,-0.3848623778763341,0.0,0.9906352023279384,-0.389024532098619,0.0,0.9578465400371594,-0.394240186687049,0.002,0.9352613343923889,-0.38547306010193516,0.008,0.8277329272528577,-0.3764092301709924,0.038,beta1
"('Fp2', 'Cz')",0.0028428062685743757,-0.3499994393969999,0.3499994393969999,0.9960238157739083,-0.41288618466895405,0.0,0.9910371114334595,-0.39924021341061044,0.0,0.9753066405154506,-0.41184970991323183,0.002,0.9440976085424613,-0.3900636996012007,0.004,0.9265616898887246,-0.37525792379860023,0.012,0.792153918407868,-0.3783364649529891,0.07,delta
"('T4', 'O2')",0.04564710635247949,-0.34904968778934314,0.34904968778934314,0.9920270648943783,-0.3790109686150626,0.0,0.9911342451390588,-0.34298861314190526,0.0,0.9873844615773018,-0.34578795515171146,0.002,0.9774115649438383,-0.3423414231325676,0.002,0.9345772633282798,-0.3400581850471211,0.016,0.9036159339859106,-0.32406323220391425,0.018,gamma
"('F4', 'C4')",0.0033237829047432993,-0.34789270274313405,0.34789270274313405,0.9937297055264925,-0.4160013262104583,0.0,0.9940971360929416,-0.41613722667294956,0.0,0.9921534728306028,-0.4027802773882444,0.0,0.95730131741862,-0.39510280086538024,0.004,0.9010760019553338,-0.38907597174157577,0.024,0.7970415169910283,-0.3811220286954635,0.066,beta2
"('O1', 'Cz')",0.037469153678974174,0.34722463350040245,0.34722463350040245,0.9970519924159206,0.3486851833715804,0.0,0.996116438302466,0.3680619160371603,0.0,0.9846198812677723,0.3424057266457155,0.008,0.9766752520886566,0.3354619165430202,0.002,0.9501222951721198,0.3287426019297468,0.008,0.9071860145320012,0.32360982889067974,0.016,beta2
"('T4', 'Cz')",0.007497657120230556,-0.3471298754134241,0.3471298754134241,0.9847069566839591,-0.38584798062294395,0.006,0.9865414798699671,-0.36125023214656016,0.006,0.980108213086553,-0.3633111299581297,0.002,0.9704485058821639,-0.36001578433955966,0.008,0.9320498959263985,-0.3694620071089877,0.01,0.8737380776232656,-0.3519767279948829,0.018,beta1
"('F8', 'P3')",0.039070929452025345,-0.34695249602684575,0.34695249602684575,0.9948460585536989,-0.3414928232969071,0.002,0.9877628530592344,-0.34929687626939393,0.002,0.9914835770040429,-0.3381729780553708,0.002,0.9685074205691578,-0.3373065806447621,0.004,0.9601612345340682,-0.32509908783318375,0.008,0.9146518784710943,-0.3230331693027286,0.014,alpha2
"('Fp1', 'F4')",0.005587854465020256,-0.34662678288384935,0.34662678288384935,0.9961629881730404,-0.37684899723646953,0.0,0.9970322275481456,-0.36472442090942125,0.0,0.9952299839180759,-0.36723777924977075,0.0,0.9814840108772422,-0.3675451627071621,0.0,0.9538861618787834,-0.36419003132563577,0.002,0.8954926298355733,-0.3555069112737441,0.014,delta
"('T3', 'C3')",0.0033481878833649084,-0.3459528298416796,0.3459528298416796,0.9849290344897084,-0.4451101762027289,0.004,0.9843686464726393,-0.40671768039452294,0.004,0.9584669526410134,-0.4130308104898039,0.006,0.9197267747634463,-0.4049586054022136,0.022,0.9026969450710326,-0.39344323846819373,0.014,0.8084800054678589,-0.38574929701565225,0.068,beta2
"('F8', 'Cz')",0.016113071831616484,-0.34446794602986114,0.34446794602986114,0.9897390399468027,-0.40741006088778664,0.002,0.9766661655325852,-0.38775847315091566,0.004,0.968934630141334,-0.3804431778730396,0.006,0.9360518828904771,-0.37462282124351093,0.016,0.9180753983143579,-0.36578604204294846,0.032,0.8636583648112818,-0.3502808876584821,0.038,beta1
"('F7', 'T3')",0.0016735767130297815,-0.3443716349212893,0.3443716349212893,0.9948961474772081,-0.42947531342448086,0.0,0.9946429931851374,-0.4030570878284613,0.0,0.9778157604905731,-0.41549937675212484,0.0,0.9473880165957788,-0.3954374074600436,0.012,0.9004347414120685,-0.3976597931276816,0.022,0.7885889192268897,-0.38380664394656044,0.056,delta
"('Fp2', 'C4')",0.003952114319363519,-0.3429057743017502,0.3429057743017502,0.9963151508651177,-0.40583296330449636,0.0,0.9928864834880728,-0.38786389543201005,0.0,0.979965851707839,-0.39105532682708743,0.002,0.9652461635569649,-0.38122122513256107,0.01,0.9408478605851439,-0.3673928759726732,0.01,0.8168485124910477,-0.37240238872797177,0.046,delta
"('F7', 'C4')",0.026635098855039903,0.3412060380862586,0.3412060380862586,0.994947008014238,0.3744751493817382,0.002,0.9835993756061141,0.3809450914355501,0.0,0.981695752617097,0.3613781319986163,0.0,0.968518569737595,0.34205415222325736,0.008,0.9621657301791833,0.3288125045225029,0.01,0.8777906126120388,0.3395959147550504,0.028,gamma
"('O1', 'O2')",0.02033023845660073,0.34069850221846326,0.34069850221846326,0.9933239509612398,0.3989015381998653,0.0,0.9852636880482508,0.3789070530642495,0.0,0.9845830235879036,0.36620259819678247,0.0,0.9644605903310026,0.3605603008228219,0.006,0.928573215210705,0.34623315989674597,0.018,0.8617552658347891,0.35097881874153625,0.042,beta1
"('T5', 'P3')",0.003282346203830542,-0.3372729890176099,0.3372729890176099,0.9987273170915318,-0.39932698813002826,0.0,0.9958985850443949,-0.37440023353828106,0.0,0.9848930233776702,-0.3874001997236592,0.0,0.9707004637711844,-0.3794993630545936,0.004,0.9323478794364211,-0.38001650766270173,0.006,0.8221630643244479,-0.3817489989629859,0.052,gamma
"('T4', 'Cz')",0.024347074675991207,-0.3364967521870235,0.3364967521870235,0.9935066888741486,-0.39625748440339276,0.0,0.979904901834509,-0.3510821197497008,0.002,0.9816014310871016,-0.3516111671110452,0.002,0.9670936235993247,-0.3501728076603195,0.006,0.9245754794115149,-0.3611586620574227,0.018,0.8902967039510371,-0.3348851862381904,0.02,beta2
"('T6', 'P4')",0.016094599719921544,-0.3360423761187394,0.3360423761187394,0.9977380310336613,-0.39516900522536,0.0,0.9903809893455007,-0.3683723984278394,0.002,0.9834354832264232,-0.37599121662441437,0.002,0.972539028894905,-0.36666962276714105,0.002,0.9385918354559948,-0.36736483506517514,0.008,0.8578819606596041,-0.359375771101321,0.024,gamma
"('Fp1', 'F7')",0.004389652116360164,-0.33502233254228264,0.33502233254228264,0.9968726101241904,-0.40305128421640235,0.0,0.9990522935896461,-0.381682000491984,0.0,0.9829537609205784,-0.4057107511666485,0.006,0.9649638131118929,-0.38948430610349516,0.002,0.9527752750520112,-0.3783231072011086,0.002,0.8723623148402972,-0.36587616090880254,0.03,theta
"('T5', 'T6')",0.018740060166393544,-0.33380106835283374,0.33380106835283374,0.9868622541897032,-0.40354239359542016,0.002,0.9876651851005733,-0.3715782230570975,0.0,0.965035995678722,-0.39261264182834255,0.008,0.9564072755327215,-0.37371239629834524,0.01,0.9171921884893974,-0.3615274714573776,0.024,0.8571728450984757,-0.35234529389729097,0.046,alpha2
"('Fp2', 'C3')",0.012164411412475132,-0.3328435082601565,0.3328435082601565,0.9922716544329818,-0.3985479975303017,0.0,0.9933976131646288,-0.37719229780188734,0.0,0.9872635032307373,-0.3847885278237575,0.0,0.9648406016595806,-0.37402041161532906,0.006,0.9314629488055722,-0.3579926788174299,0.016,0.8160491890027686,-0.3646396566348274,0.052,alpha2
"('Fp1', 'Cz')",0.025984853038107353,-0.33200643330605195,0.33200643330605195,0.9977167367201705,-0.35357940849745206,0.0,0.9982259224355269,-0.3523247747205175,0.0,0.9876610368010659,-0.3554541194352059,0.0,0.9834190409754896,-0.33865827712761076,0.0,0.9656445243055772,-0.33758893774237586,0.004,0.9063944062484561,-0.3333987646356643,0.01,theta
"('T3', 'C3')",0.01190454426886506,-0.3264584560652943,0.3264584560652943,0.9854945352118683,-0.41611787785474696,0.0,0.9846168760262957,-0.3924211178029012,0.004,0.966108431945978,-0.3857814671319934,0.008,0.9373010564132397,-0.38289547790437345,0.016,0.9079307941500834,-0.3764801620647916,0.026,0.8403868459408684,-0.360437930775033,0.056,beta1
"('T3', 'T5')",0.009250248500441373,-0.3254530860983289,0.3254530860983289,0.9887267324211272,-0.41612915121783867,0.0,0.9800350976208196,-0.40362196109421206,0.004,0.9832899647664823,-0.39128226845309894,0.002,0.9270336778804515,-0.39771189152650055,0.022,0.9018340580570674,-0.3769582389512488,0.016,0.8152311420907501,-0.367663546819819,0.06,beta2
"('F4', 'C4')",0.0180196919754797,-0.32371888766824214,0.32371888766824214,0.9953367514260135,-0.3695161804272542,0.0,0.9875147842255833,-0.36018453208131257,0.004,0.9858064558984839,-0.3726714814615396,0.002,0.9793227802985888,-0.3523977909119413,0.004,0.9452398556417706,-0.3505751960697034,0.01,0.8608743495546035,-0.34734018727323457,0.034,alpha1
"('Fp2', 'O1')",0.027263257385656714,0.32358448226366077,0.32358448226366077,0.9885840619319649,0.3777537054981299,0.002,0.9768516647418166,0.38683256246665687,0.004,0.9740601414436466,0.3705946087845418,0.008,0.9603998711641019,0.35151101247937144,0.006,0.9309153303612184,0.34687384276653493,0.022,0.8847930472941905,0.33733158421857773,0.016,gamma
"('Fz', 'O1')",0.0068469957006774005,-0.32356456700852154,0.32356456700852154,0.9946331123951707,-0.4023662798325143,0.0,0.9918856572991641,-0.37675714946311545,0.002,0.984325860611606,-0.3873204064913191,0.004,0.9680051431528747,-0.3609291628352869,0.004,0.9462734717938868,-0.35704954309394216,0.01,0.8430045795939489,-0.36157100188961755,0.034,alpha2
"('O2', 'Cz')",0.035153260842147364,0.32132508623712,0.32132508623712,0.9868487192665067,0.40203415185614644,0.0,0.9825543067480264,0.3919525187506091,0.0,0.9766722418031868,0.3749328517587928,0.0,0.948740016642846,0.3650946787121476,0.014,0.9328381960832943,0.35158790132210516,0.016,0.8499473428917095,0.34974856506249935,0.034,beta1
"('O1', 'C4')",0.03148026842687796,0.31995777980558626,0.31995777980558626,0.9948373432631368,0.36364315018126253,0.0,0.9884907141764573,0.3719158078034769,0.002,0.9864676347802365,0.3350145111638254,0.002,0.9750164960926638,0.32604494088517055,0.0,0.9496372527268057,0.3300177775691509,0.008,0.8964543873534264,0.33373687438862787,0.028,beta2
"('O1', 'P4')",0.01832555229437389,0.31952168241006335,0.31952168241006335,0.9850367150399797,0.428233350886443,0.0,0.9762637425417121,0.39263479395540074,0.002,0.9707773929789189,0.38463718240558914,0.008,0.9447485401458942,0.37016233249173874,0.008,0.9232568911047817,0.3629354517667595,0.022,0.8293067346436769,0.3601974039150373,0.064,alpha1
"('F4', 'C3')",0.012094651983531254,-0.31946527867067254,0.31946527867067254,0.9889482528966242,-0.3878217693616063,0.0,0.9845972001577183,-0.3695759585844864,0.002,0.9746901125578531,-0.3813252104881545,0.002,0.9708641462946553,-0.3648105210781975,0.01,0.9398976526690428,-0.3524049637523531,0.008,0.8535514332766474,-0.3601523760315312,0.038,alpha1
"('C3', 'Pz')",0.0362218066556145,-0.3165554024125964,0.3165554024125964,0.994928095409509,-0.359930198230715,0.0,0.9961529198223569,-0.3382259963068738,0.0,0.9900656719229294,-0.3451314131242676,0.0,0.9848102008932187,-0.3317149759527804,0.0,0.9934952754955241,-0.3423162778770031,0.002,0.9378680581670787,-0.32699685249390376,0.012,beta1
"('T3', 'O2')",0.0025276776900654994,-0.31351406526398556,0.31351406526398556,0.9906653292193793,-0.3864944198016858,0.0,0.985287800662619,-0.38230569810476567,0.004,0.9791751369955507,-0.39745729818484055,0.002,0.9529572109001613,-0.38895507765734383,0.01,0.9136566286973538,-0.3762237268382173,0.024,0.7941893677275044,-0.3790378293748629,0.04,alpha2
"('T4', 'T6')",0.019835664229185108,-0.31305521613634674,0.31305521613634674,0.9947129052830954,-0.36606434143727395,0.0,0.997209788484435,-0.34463186176268007,0.0,0.9890128906214689,-0.3498945986376819,0.004,0.9762502170785066,-0.35030349632577423,0.006,0.9332977288662463,-0.35405161547285663,0.014,0.8899149566960481,-0.3413142716821308,0.022,beta2
"('F3', 'C4')",0.0398279840517383,-0.3058180520252294,0.3058180520252294,0.9929128393517301,-0.3369420576268415,0.002,0.999311955946988,-0.3228564047659182,0.0,0.9911871674785685,-0.3356348029147503,0.002,0.9761851435614661,-0.33075650195135364,0.002,0.9701994139930983,-0.32769392865122227,0.004,0.9423845721128202,-0.32634505750105225,0.008,theta
"('Fz', 'T3')",0.0451709724196804,-0.30375966221011963,0.30375966221011963,0.9973402445718306,-0.3546904070621152,0.0,0.9930962318548299,-0.333852523582928,0.0,0.9913132883507365,-0.3496626394147246,0.0,0.9861941537539821,-0.3337484047843468,0.0,0.9682277387669326,-0.3389617486541012,0.002,0.9068901628017578,-0.3302340915558968,0.022,delta
"('F8', 'P3')",0.03350921999309225,0.3028899073366501,0.3028899073366501,0.9963583726259904,0.3590423429594667,0.0,0.9917264361406691,0.3550234623273424,0.0,0.9913471643778928,0.34920212488365954,0.0,0.9846678642414474,0.3326790936824902,0.004,0.9519236487664573,0.33602965270091806,0.002,0.9033692953036673,0.3322245305665481,0.02,gamma
"('T4', 'T6')",0.020888113655471274,-0.30102067086115825,0.30102067086115825,0.994209728672355,-0.36459163009669965,0.0,0.9892226657683051,-0.3630539739128812,0.0,0.9820909935513324,-0.3562292639560088,0.002,0.9769933527436722,-0.3426425371857142,0.006,0.9388895391654252,-0.3585354825187164,0.012,0.8994238438987595,-0.33380593669439584,0.02,gamma
"('Fp1', 'Fp2')",0.03505581329956207,-0.29392844309933847,0.29392844309933847,0.9936168919281354,-0.36221922494595576,0.0,0.9950032410595809,-0.35344755546282386,0.0,0.9899002833993632,-0.3406057693966505,0.002,0.9727736639624323,-0.35244357904841317,0.004,0.9623409975370693,-0.331401517444244,0.006,0.9027485432809348,-0.3322532415848465,0.02,beta1
"('Fp1', 'T3')",0.02650625544400685,-0.2880621911976641,0.2880621911976641,0.9958493530511371,-0.37360080613009844,0.0,0.9856598215310108,-0.3625771103804546,0.002,0.9817785164098689,-0.3644573063327926,0.006,0.9535456927674715,-0.3533739944255619,0.014,0.956483488659126,-0.337125511031858,0.01,0.8837411210155464,-0.3416460366996438,0.018,beta1
"('Fp2', 'T4')",0.020731644285815427,-0.2852288377889383,0.2852288377889383,0.9972810178605505,-0.3751507364200785,0.0,0.993756396062115,-0.3492237959869585,0.0,0.9885014055343423,-0.3464364254453675,0.0,0.9829240372916226,-0.35406589827488205,0.004,0.9628786813780011,-0.34566835930226847,0.002,0.9040845927928843,-0.3390757474862304,0.024,alpha1
"('F3', 'Pz')",0.021443962694537345,-0.282918659469342,0.282918659469342,0.9962597071867105,-0.37571458922153933,0.0,0.9859083368547754,-0.36325282799404446,0.002,0.9827440949208844,-0.36693725679514305,0.002,0.9788953166132587,-0.34948293136502867,0.002,0.9501441990093571,-0.3510985586259335,0.014,0.8852175923722915,-0.34200203263135803,0.038,beta1
"('F3', 'C4')",0.015062619301227646,-0.2787198190755822,0.2787198190755822,0.9997622364834566,-0.37263561990991745,0.0,0.9976049451466025,-0.3498171540139178,0.0,0.9837406992835177,-0.3747586573336784,0.004,0.9757752150001011,-0.35653221155825837,0.006,0.942717896612804,-0.3621127786586933,0.008,0.8841647774297712,-0.34633588248365793,0.018,beta1
"('O2', 'Pz')",0.0420544852089905,0.2565353913133972,0.2565353913133972,0.9924222656551231,0.37199568439479186,0.002,0.9875471993090206,0.36797928438708466,0.002,0.9769463141523033,0.3549475757036655,0.004,0.9601161584442746,0.3533081596349846,0.014,0.9454988030611238,0.33781540446146696,0.01,0.9037540687459101,0.3333476134269678,0.022,beta2
